log(E / eV)	log(z / pc)	t / yr	 logQ
6	1	0	49.2222
6.10101	1	0	49.4708
6.20202	1	0	49.6259
6.30303	1	0	49.7069
6.40404	1	0	49.7292
6.50505	1	0	49.7049
6.60606	1	0	49.6437
6.70707	1	0	49.5533
6.80808	1	0	49.4397
6.90909	1	0	49.3078
7.0101	1	0	49.1614
7.11111	1	0	49.0034
7.21212	1	0	48.8362
7.31313	1	0	48.6619
7.41414	1	0	48.4818
7.51515	1	0	48.2971
7.61616	1	0	48.1088
7.71717	1	0	47.9177
7.81818	1	0	47.7244
7.91919	1	0	47.5292
8.0202	1	0	47.3326
8.12121	1	0	47.1349
8.22222	1	0	46.9363
8.32323	1	0	46.7369
8.42424	1	0	46.5371
8.52525	1	0	46.3367
8.62626	1	0	46.1361
8.72727	1	0	45.9351
8.82828	1	0	45.7339
8.92929	1	0	45.5326
9.0303	1	0	45.3311
9.13131	1	0	45.1295
9.23232	1	0	44.9278
9.33333	1	0	44.726
9.43434	1	0	44.5242
9.53535	1	0	44.3224
9.63636	1	0	44.1205
9.73737	1	0	43.9186
9.83838	1	0	43.7166
9.93939	1	0	43.5147
10.0404	1	0	43.3127
10.1414	1	0	43.1107
10.2424	1	0	42.9087
10.3434	1	0	42.7067
10.4444	1	0	42.5047
10.5455	1	0	42.3027
10.6465	1	0	42.1007
10.7475	1	0	41.8987
10.8485	1	0	41.6967
10.9495	1	0	41.4946
11.0505	1	0	41.2926
11.1515	1	0	41.0906
11.2525	1	0	40.8885
11.3535	1	0	40.6865
11.4545	1	0	40.4844
11.5556	1	0	40.2823
11.6566	1	0	40.0802
11.7576	1	0	39.8781
11.8586	1	0	39.676
11.9596	1	0	39.4738
12.0606	1	0	39.2716
12.1616	1	0	39.0693
12.2626	1	0	38.867
12.3636	1	0	38.6646
12.4646	1	0	38.4621
12.5657	1	0	38.2595
12.6667	1	0	38.0567
12.7677	1	0	37.8537
12.8687	1	0	37.6505
12.9697	1	0	37.447
13.0707	1	0	37.243
13.1717	1	0	37.0385
13.2727	1	0	36.8334
13.3737	1	0	36.6275
13.4747	1	0	36.4206
13.5758	1	0	36.2124
13.6768	1	0	36.0026
13.7778	1	0	35.7908
13.8788	1	0	35.5763
13.9798	1	0	35.3586
14.0808	1	0	35.1368
14.1818	1	0	34.9099
14.2828	1	0	34.6764
14.3838	1	0	34.4346
14.4848	1	0	34.1825
14.5859	1	0	33.9172
14.6869	1	0	33.6354
14.7879	1	0	33.3327
14.8889	1	0	33.0036
14.9899	1	0	32.6412
15.0909	1	0	32.2369
15.1919	1	0	31.7795
15.2929	1	0	31.2553
15.3939	1	0	30.6468
15.4949	1	0	29.9318
15.596	1	0	29.0824
15.697	1	0	28.0636
15.798	1	0	26.8308
15.899	1	0	25.3282
16	1	0	23.485
6	1.01426	0.417369	48.9772
6.10101	1.01426	0.417369	49.2258
6.20202	1.01426	0.417369	49.3809
6.30303	1.01426	0.417369	49.4619
6.40404	1.01426	0.417369	49.4842
6.50505	1.01426	0.417369	49.4599
6.60606	1.01426	0.417369	49.3987
6.70707	1.01426	0.417369	49.3083
6.80808	1.01426	0.417369	49.1947
6.90909	1.01426	0.417369	49.0628
7.0101	1.01426	0.417369	48.9164
7.11111	1.01426	0.417369	48.7584
7.21212	1.01426	0.417369	48.5912
7.31313	1.01426	0.417369	48.4169
7.41414	1.01426	0.417369	48.2367
7.51515	1.01426	0.417369	48.0521
7.61616	1.01426	0.417369	47.8638
7.71717	1.01426	0.417369	47.6727
7.81818	1.01426	0.417369	47.4793
7.91919	1.01426	0.417369	47.2842
8.0202	1.01426	0.417369	47.0876
8.12121	1.01426	0.417369	46.8899
8.22222	1.01426	0.417369	46.6912
8.32323	1.01426	0.417369	46.4919
8.42424	1.01426	0.417369	46.292
8.52525	1.01426	0.417369	46.0917
8.62626	1.01426	0.417369	45.891
8.72727	1.01426	0.417369	45.6901
8.82828	1.01426	0.417369	45.4889
8.92929	1.01426	0.417369	45.2876
9.0303	1.01426	0.417369	45.0861
9.13131	1.01426	0.417369	44.8845
9.23232	1.01426	0.417369	44.6828
9.33333	1.01426	0.417369	44.481
9.43434	1.01426	0.417369	44.2792
9.53535	1.01426	0.417369	44.0774
9.63636	1.01426	0.417369	43.8755
9.73737	1.01426	0.417369	43.6736
9.83838	1.01426	0.417369	43.4716
9.93939	1.01426	0.417369	43.2697
10.0404	1.01426	0.417369	43.0677
10.1414	1.01426	0.417369	42.8657
10.2424	1.01426	0.417369	42.6637
10.3434	1.01426	0.417369	42.4617
10.4444	1.01426	0.417369	42.2597
10.5455	1.01426	0.417369	42.0577
10.6465	1.01426	0.417369	41.8557
10.7475	1.01426	0.417369	41.6537
10.8485	1.01426	0.417369	41.4517
10.9495	1.01426	0.417369	41.2496
11.0505	1.01426	0.417369	41.0476
11.1515	1.01426	0.417369	40.8455
11.2525	1.01426	0.417369	40.6435
11.3535	1.01426	0.417369	40.4414
11.4545	1.01426	0.417369	40.2394
11.5556	1.01426	0.417369	40.0373
11.6566	1.01426	0.417369	39.8352
11.7576	1.01426	0.417369	39.6331
11.8586	1.01426	0.417369	39.431
11.9596	1.01426	0.417369	39.2288
12.0606	1.01426	0.417369	39.0266
12.1616	1.01426	0.417369	38.8243
12.2626	1.01426	0.417369	38.622
12.3636	1.01426	0.417369	38.4196
12.4646	1.01426	0.417369	38.2171
12.5657	1.01426	0.417369	38.0145
12.6667	1.01426	0.417369	37.8117
12.7677	1.01426	0.417369	37.6087
12.8687	1.01426	0.417369	37.4055
12.9697	1.01426	0.417369	37.2019
13.0707	1.01426	0.417369	36.998
13.1717	1.01426	0.417369	36.7935
13.2727	1.01426	0.417369	36.5884
13.3737	1.01426	0.417369	36.3825
13.4747	1.01426	0.417369	36.1756
13.5758	1.01426	0.417369	35.9674
13.6768	1.01426	0.417369	35.7576
13.7778	1.01426	0.417369	35.5457
13.8788	1.01426	0.417369	35.3313
13.9798	1.01426	0.417369	35.1136
14.0808	1.01426	0.417369	34.8918
14.1818	1.01426	0.417369	34.6649
14.2828	1.01426	0.417369	34.4314
14.3838	1.01426	0.417369	34.1896
14.4848	1.01426	0.417369	33.9375
14.5859	1.01426	0.417369	33.6722
14.6869	1.01426	0.417369	33.3904
14.7879	1.01426	0.417369	33.0877
14.8889	1.01426	0.417369	32.7586
14.9899	1.01426	0.417369	32.3962
15.0909	1.01426	0.417369	31.9919
15.1919	1.01426	0.417369	31.5345
15.2929	1.01426	0.417369	31.0103
15.3939	1.01426	0.417369	30.4018
15.4949	1.01426	0.417369	29.6868
15.596	1.01426	0.417369	28.8374
15.697	1.01426	0.417369	27.8186
15.798	1.01426	0.417369	26.5858
15.899	1.01426	0.417369	25.0832
16	1.01426	0.417369	23.24
6	1.02853	0.58095	48.8029
6.10101	1.02853	0.58095	49.0514
6.20202	1.02853	0.58095	49.2065
6.30303	1.02853	0.58095	49.2875
6.40404	1.02853	0.58095	49.3098
6.50505	1.02853	0.58095	49.2855
6.60606	1.02853	0.58095	49.2243
6.70707	1.02853	0.58095	49.1339
6.80808	1.02853	0.58095	49.0204
6.90909	1.02853	0.58095	48.8884
7.0101	1.02853	0.58095	48.742
7.11111	1.02853	0.58095	48.584
7.21212	1.02853	0.58095	48.4168
7.31313	1.02853	0.58095	48.2425
7.41414	1.02853	0.58095	48.0624
7.51515	1.02853	0.58095	47.8777
7.61616	1.02853	0.58095	47.6894
7.71717	1.02853	0.58095	47.4983
7.81818	1.02853	0.58095	47.305
7.91919	1.02853	0.58095	47.1098
8.0202	1.02853	0.58095	46.9132
8.12121	1.02853	0.58095	46.7155
8.22222	1.02853	0.58095	46.5169
8.32323	1.02853	0.58095	46.3175
8.42424	1.02853	0.58095	46.1177
8.52525	1.02853	0.58095	45.9173
8.62626	1.02853	0.58095	45.7167
8.72727	1.02853	0.58095	45.5157
8.82828	1.02853	0.58095	45.3145
8.92929	1.02853	0.58095	45.1132
9.0303	1.02853	0.58095	44.9117
9.13131	1.02853	0.58095	44.7101
9.23232	1.02853	0.58095	44.5084
9.33333	1.02853	0.58095	44.3066
9.43434	1.02853	0.58095	44.1048
9.53535	1.02853	0.58095	43.903
9.63636	1.02853	0.58095	43.7011
9.73737	1.02853	0.58095	43.4992
9.83838	1.02853	0.58095	43.2972
9.93939	1.02853	0.58095	43.0953
10.0404	1.02853	0.58095	42.8933
10.1414	1.02853	0.58095	42.6913
10.2424	1.02853	0.58095	42.4893
10.3434	1.02853	0.58095	42.2873
10.4444	1.02853	0.58095	42.0853
10.5455	1.02853	0.58095	41.8833
10.6465	1.02853	0.58095	41.6813
10.7475	1.02853	0.58095	41.4793
10.8485	1.02853	0.58095	41.2773
10.9495	1.02853	0.58095	41.0752
11.0505	1.02853	0.58095	40.8732
11.1515	1.02853	0.58095	40.6712
11.2525	1.02853	0.58095	40.4691
11.3535	1.02853	0.58095	40.2671
11.4545	1.02853	0.58095	40.065
11.5556	1.02853	0.58095	39.8629
11.6566	1.02853	0.58095	39.6608
11.7576	1.02853	0.58095	39.4587
11.8586	1.02853	0.58095	39.2566
11.9596	1.02853	0.58095	39.0544
12.0606	1.02853	0.58095	38.8522
12.1616	1.02853	0.58095	38.6499
12.2626	1.02853	0.58095	38.4476
12.3636	1.02853	0.58095	38.2452
12.4646	1.02853	0.58095	38.0427
12.5657	1.02853	0.58095	37.8401
12.6667	1.02853	0.58095	37.6373
12.7677	1.02853	0.58095	37.4343
12.8687	1.02853	0.58095	37.2311
12.9697	1.02853	0.58095	37.0276
13.0707	1.02853	0.58095	36.8236
13.1717	1.02853	0.58095	36.6191
13.2727	1.02853	0.58095	36.4141
13.3737	1.02853	0.58095	36.2081
13.4747	1.02853	0.58095	36.0012
13.5758	1.02853	0.58095	35.793
13.6768	1.02853	0.58095	35.5832
13.7778	1.02853	0.58095	35.3714
13.8788	1.02853	0.58095	35.1569
13.9798	1.02853	0.58095	34.9392
14.0808	1.02853	0.58095	34.7174
14.1818	1.02853	0.58095	34.4905
14.2828	1.02853	0.58095	34.257
14.3838	1.02853	0.58095	34.0152
14.4848	1.02853	0.58095	33.7631
14.5859	1.02853	0.58095	33.4978
14.6869	1.02853	0.58095	33.216
14.7879	1.02853	0.58095	32.9133
14.8889	1.02853	0.58095	32.5842
14.9899	1.02853	0.58095	32.2218
15.0909	1.02853	0.58095	31.8175
15.1919	1.02853	0.58095	31.3601
15.2929	1.02853	0.58095	30.836
15.3939	1.02853	0.58095	30.2274
15.4949	1.02853	0.58095	29.5124
15.596	1.02853	0.58095	28.663
15.697	1.02853	0.58095	27.6442
15.798	1.02853	0.58095	26.4115
15.899	1.02853	0.58095	24.9088
16	1.02853	0.58095	23.0656
6	1.04279	0.708223	48.7003
6.10101	1.04279	0.708223	48.9489
6.20202	1.04279	0.708223	49.104
6.30303	1.04279	0.708223	49.185
6.40404	1.04279	0.708223	49.2073
6.50505	1.04279	0.708223	49.183
6.60606	1.04279	0.708223	49.1218
6.70707	1.04279	0.708223	49.0314
6.80808	1.04279	0.708223	48.9178
6.90909	1.04279	0.708223	48.7859
7.0101	1.04279	0.708223	48.6395
7.11111	1.04279	0.708223	48.4815
7.21212	1.04279	0.708223	48.3143
7.31313	1.04279	0.708223	48.14
7.41414	1.04279	0.708223	47.9599
7.51515	1.04279	0.708223	47.7752
7.61616	1.04279	0.708223	47.5869
7.71717	1.04279	0.708223	47.3958
7.81818	1.04279	0.708223	47.2024
7.91919	1.04279	0.708223	47.0073
8.0202	1.04279	0.708223	46.8107
8.12121	1.04279	0.708223	46.613
8.22222	1.04279	0.708223	46.4144
8.32323	1.04279	0.708223	46.215
8.42424	1.04279	0.708223	46.0152
8.52525	1.04279	0.708223	45.8148
8.62626	1.04279	0.708223	45.6142
8.72727	1.04279	0.708223	45.4132
8.82828	1.04279	0.708223	45.212
8.92929	1.04279	0.708223	45.0107
9.0303	1.04279	0.708223	44.8092
9.13131	1.04279	0.708223	44.6076
9.23232	1.04279	0.708223	44.4059
9.33333	1.04279	0.708223	44.2041
9.43434	1.04279	0.708223	44.0023
9.53535	1.04279	0.708223	43.8005
9.63636	1.04279	0.708223	43.5986
9.73737	1.04279	0.708223	43.3967
9.83838	1.04279	0.708223	43.1947
9.93939	1.04279	0.708223	42.9928
10.0404	1.04279	0.708223	42.7908
10.1414	1.04279	0.708223	42.5888
10.2424	1.04279	0.708223	42.3868
10.3434	1.04279	0.708223	42.1848
10.4444	1.04279	0.708223	41.9828
10.5455	1.04279	0.708223	41.7808
10.6465	1.04279	0.708223	41.5788
10.7475	1.04279	0.708223	41.3768
10.8485	1.04279	0.708223	41.1748
10.9495	1.04279	0.708223	40.9727
11.0505	1.04279	0.708223	40.7707
11.1515	1.04279	0.708223	40.5687
11.2525	1.04279	0.708223	40.3666
11.3535	1.04279	0.708223	40.1646
11.4545	1.04279	0.708223	39.9625
11.5556	1.04279	0.708223	39.7604
11.6566	1.04279	0.708223	39.5583
11.7576	1.04279	0.708223	39.3562
11.8586	1.04279	0.708223	39.1541
11.9596	1.04279	0.708223	38.9519
12.0606	1.04279	0.708223	38.7497
12.1616	1.04279	0.708223	38.5474
12.2626	1.04279	0.708223	38.3451
12.3636	1.04279	0.708223	38.1427
12.4646	1.04279	0.708223	37.9402
12.5657	1.04279	0.708223	37.7376
12.6667	1.04279	0.708223	37.5348
12.7677	1.04279	0.708223	37.3318
12.8687	1.04279	0.708223	37.1286
12.9697	1.04279	0.708223	36.925
13.0707	1.04279	0.708223	36.7211
13.1717	1.04279	0.708223	36.5166
13.2727	1.04279	0.708223	36.3115
13.3737	1.04279	0.708223	36.1056
13.4747	1.04279	0.708223	35.8987
13.5758	1.04279	0.708223	35.6905
13.6768	1.04279	0.708223	35.4807
13.7778	1.04279	0.708223	35.2688
13.8788	1.04279	0.708223	35.0544
13.9798	1.04279	0.708223	34.8367
14.0808	1.04279	0.708223	34.6149
14.1818	1.04279	0.708223	34.388
14.2828	1.04279	0.708223	34.1545
14.3838	1.04279	0.708223	33.9127
14.4848	1.04279	0.708223	33.6606
14.5859	1.04279	0.708223	33.3953
14.6869	1.04279	0.708223	33.1135
14.7879	1.04279	0.708223	32.8108
14.8889	1.04279	0.708223	32.4817
14.9899	1.04279	0.708223	32.1193
15.0909	1.04279	0.708223	31.715
15.1919	1.04279	0.708223	31.2576
15.2929	1.04279	0.708223	30.7334
15.3939	1.04279	0.708223	30.1249
15.4949	1.04279	0.708223	29.4099
15.596	1.04279	0.708223	28.5605
15.697	1.04279	0.708223	27.5417
15.798	1.04279	0.708223	26.3089
15.899	1.04279	0.708223	24.8063
16	1.04279	0.708223	22.9631
6	1.05706	0.817905	48.6272
6.10101	1.05706	0.817905	48.8758
6.20202	1.05706	0.817905	49.0309
6.30303	1.05706	0.817905	49.1119
6.40404	1.05706	0.817905	49.1342
6.50505	1.05706	0.817905	49.1099
6.60606	1.05706	0.817905	49.0487
6.70707	1.05706	0.817905	48.9583
6.80808	1.05706	0.817905	48.8447
6.90909	1.05706	0.817905	48.7128
7.0101	1.05706	0.817905	48.5664
7.11111	1.05706	0.817905	48.4084
7.21212	1.05706	0.817905	48.2412
7.31313	1.05706	0.817905	48.0669
7.41414	1.05706	0.817905	47.8867
7.51515	1.05706	0.817905	47.7021
7.61616	1.05706	0.817905	47.5138
7.71717	1.05706	0.817905	47.3227
7.81818	1.05706	0.817905	47.1293
7.91919	1.05706	0.817905	46.9342
8.0202	1.05706	0.817905	46.7376
8.12121	1.05706	0.817905	46.5399
8.22222	1.05706	0.817905	46.3412
8.32323	1.05706	0.817905	46.1419
8.42424	1.05706	0.817905	45.942
8.52525	1.05706	0.817905	45.7417
8.62626	1.05706	0.817905	45.541
8.72727	1.05706	0.817905	45.3401
8.82828	1.05706	0.817905	45.1389
8.92929	1.05706	0.817905	44.9376
9.0303	1.05706	0.817905	44.7361
9.13131	1.05706	0.817905	44.5345
9.23232	1.05706	0.817905	44.3328
9.33333	1.05706	0.817905	44.131
9.43434	1.05706	0.817905	43.9292
9.53535	1.05706	0.817905	43.7274
9.63636	1.05706	0.817905	43.5255
9.73737	1.05706	0.817905	43.3236
9.83838	1.05706	0.817905	43.1216
9.93939	1.05706	0.817905	42.9197
10.0404	1.05706	0.817905	42.7177
10.1414	1.05706	0.817905	42.5157
10.2424	1.05706	0.817905	42.3137
10.3434	1.05706	0.817905	42.1117
10.4444	1.05706	0.817905	41.9097
10.5455	1.05706	0.817905	41.7077
10.6465	1.05706	0.817905	41.5057
10.7475	1.05706	0.817905	41.3037
10.8485	1.05706	0.817905	41.1017
10.9495	1.05706	0.817905	40.8996
11.0505	1.05706	0.817905	40.6976
11.1515	1.05706	0.817905	40.4955
11.2525	1.05706	0.817905	40.2935
11.3535	1.05706	0.817905	40.0914
11.4545	1.05706	0.817905	39.8894
11.5556	1.05706	0.817905	39.6873
11.6566	1.05706	0.817905	39.4852
11.7576	1.05706	0.817905	39.2831
11.8586	1.05706	0.817905	39.081
11.9596	1.05706	0.817905	38.8788
12.0606	1.05706	0.817905	38.6766
12.1616	1.05706	0.817905	38.4743
12.2626	1.05706	0.817905	38.272
12.3636	1.05706	0.817905	38.0696
12.4646	1.05706	0.817905	37.8671
12.5657	1.05706	0.817905	37.6645
12.6667	1.05706	0.817905	37.4617
12.7677	1.05706	0.817905	37.2587
12.8687	1.05706	0.817905	37.0555
12.9697	1.05706	0.817905	36.8519
13.0707	1.05706	0.817905	36.648
13.1717	1.05706	0.817905	36.4435
13.2727	1.05706	0.817905	36.2384
13.3737	1.05706	0.817905	36.0325
13.4747	1.05706	0.817905	35.8256
13.5758	1.05706	0.817905	35.6174
13.6768	1.05706	0.817905	35.4076
13.7778	1.05706	0.817905	35.1957
13.8788	1.05706	0.817905	34.9813
13.9798	1.05706	0.817905	34.7636
14.0808	1.05706	0.817905	34.5418
14.1818	1.05706	0.817905	34.3149
14.2828	1.05706	0.817905	34.0814
14.3838	1.05706	0.817905	33.8396
14.4848	1.05706	0.817905	33.5875
14.5859	1.05706	0.817905	33.3222
14.6869	1.05706	0.817905	33.0404
14.7879	1.05706	0.817905	32.7377
14.8889	1.05706	0.817905	32.4086
14.9899	1.05706	0.817905	32.0462
15.0909	1.05706	0.817905	31.6419
15.1919	1.05706	0.817905	31.1845
15.2929	1.05706	0.817905	30.6603
15.3939	1.05706	0.817905	30.0518
15.4949	1.05706	0.817905	29.3368
15.596	1.05706	0.817905	28.4874
15.697	1.05706	0.817905	27.4686
15.798	1.05706	0.817905	26.2358
15.899	1.05706	0.817905	24.7332
16	1.05706	0.817905	22.89
6	1.07132	0.903305	48.5539
6.10101	1.07132	0.903305	48.8025
6.20202	1.07132	0.903305	48.9576
6.30303	1.07132	0.903305	49.0386
6.40404	1.07132	0.903305	49.0608
6.50505	1.07132	0.903305	49.0365
6.60606	1.07132	0.903305	48.9754
6.70707	1.07132	0.903305	48.885
6.80808	1.07132	0.903305	48.7714
6.90909	1.07132	0.903305	48.6395
7.0101	1.07132	0.903305	48.493
7.11111	1.07132	0.903305	48.335
7.21212	1.07132	0.903305	48.1679
7.31313	1.07132	0.903305	47.9935
7.41414	1.07132	0.903305	47.8134
7.51515	1.07132	0.903305	47.6288
7.61616	1.07132	0.903305	47.4405
7.71717	1.07132	0.903305	47.2494
7.81818	1.07132	0.903305	47.056
7.91919	1.07132	0.903305	46.8608
8.0202	1.07132	0.903305	46.6642
8.12121	1.07132	0.903305	46.4665
8.22222	1.07132	0.903305	46.2679
8.32323	1.07132	0.903305	46.0686
8.42424	1.07132	0.903305	45.8687
8.52525	1.07132	0.903305	45.6684
8.62626	1.07132	0.903305	45.4677
8.72727	1.07132	0.903305	45.2668
8.82828	1.07132	0.903305	45.0656
8.92929	1.07132	0.903305	44.8642
9.0303	1.07132	0.903305	44.6627
9.13131	1.07132	0.903305	44.4611
9.23232	1.07132	0.903305	44.2595
9.33333	1.07132	0.903305	44.0577
9.43434	1.07132	0.903305	43.8559
9.53535	1.07132	0.903305	43.654
9.63636	1.07132	0.903305	43.4521
9.73737	1.07132	0.903305	43.2502
9.83838	1.07132	0.903305	43.0483
9.93939	1.07132	0.903305	42.8463
10.0404	1.07132	0.903305	42.6444
10.1414	1.07132	0.903305	42.4424
10.2424	1.07132	0.903305	42.2404
10.3434	1.07132	0.903305	42.0384
10.4444	1.07132	0.903305	41.8364
10.5455	1.07132	0.903305	41.6344
10.6465	1.07132	0.903305	41.4324
10.7475	1.07132	0.903305	41.2303
10.8485	1.07132	0.903305	41.0283
10.9495	1.07132	0.903305	40.8263
11.0505	1.07132	0.903305	40.6243
11.1515	1.07132	0.903305	40.4222
11.2525	1.07132	0.903305	40.2202
11.3535	1.07132	0.903305	40.0181
11.4545	1.07132	0.903305	39.8161
11.5556	1.07132	0.903305	39.614
11.6566	1.07132	0.903305	39.4119
11.7576	1.07132	0.903305	39.2098
11.8586	1.07132	0.903305	39.0076
11.9596	1.07132	0.903305	38.8055
12.0606	1.07132	0.903305	38.6033
12.1616	1.07132	0.903305	38.401
12.2626	1.07132	0.903305	38.1987
12.3636	1.07132	0.903305	37.9963
12.4646	1.07132	0.903305	37.7938
12.5657	1.07132	0.903305	37.5912
12.6667	1.07132	0.903305	37.3884
12.7677	1.07132	0.903305	37.1854
12.8687	1.07132	0.903305	36.9822
12.9697	1.07132	0.903305	36.7786
13.0707	1.07132	0.903305	36.5747
13.1717	1.07132	0.903305	36.3702
13.2727	1.07132	0.903305	36.1651
13.3737	1.07132	0.903305	35.9592
13.4747	1.07132	0.903305	35.7523
13.5758	1.07132	0.903305	35.5441
13.6768	1.07132	0.903305	35.3343
13.7778	1.07132	0.903305	35.1224
13.8788	1.07132	0.903305	34.908
13.9798	1.07132	0.903305	34.6903
14.0808	1.07132	0.903305	34.4685
14.1818	1.07132	0.903305	34.2415
14.2828	1.07132	0.903305	34.008
14.3838	1.07132	0.903305	33.7663
14.4848	1.07132	0.903305	33.5142
14.5859	1.07132	0.903305	33.2489
14.6869	1.07132	0.903305	32.9671
14.7879	1.07132	0.903305	32.6643
14.8889	1.07132	0.903305	32.3353
14.9899	1.07132	0.903305	31.9729
15.0909	1.07132	0.903305	31.5685
15.1919	1.07132	0.903305	31.1112
15.2929	1.07132	0.903305	30.587
15.3939	1.07132	0.903305	29.9784
15.4949	1.07132	0.903305	29.2634
15.596	1.07132	0.903305	28.4141
15.697	1.07132	0.903305	27.3952
15.798	1.07132	0.903305	26.1625
15.899	1.07132	0.903305	24.6599
16	1.07132	0.903305	22.8166
6	1.08559	0.983583	48.4936
6.10101	1.08559	0.983583	48.7422
6.20202	1.08559	0.983583	48.8973
6.30303	1.08559	0.983583	48.9783
6.40404	1.08559	0.983583	49.0005
6.50505	1.08559	0.983583	48.9762
6.60606	1.08559	0.983583	48.9151
6.70707	1.08559	0.983583	48.8247
6.80808	1.08559	0.983583	48.7111
6.90909	1.08559	0.983583	48.5792
7.0101	1.08559	0.983583	48.4327
7.11111	1.08559	0.983583	48.2747
7.21212	1.08559	0.983583	48.1076
7.31313	1.08559	0.983583	47.9332
7.41414	1.08559	0.983583	47.7531
7.51515	1.08559	0.983583	47.5685
7.61616	1.08559	0.983583	47.3802
7.71717	1.08559	0.983583	47.1891
7.81818	1.08559	0.983583	46.9957
7.91919	1.08559	0.983583	46.8005
8.0202	1.08559	0.983583	46.6039
8.12121	1.08559	0.983583	46.4062
8.22222	1.08559	0.983583	46.2076
8.32323	1.08559	0.983583	46.0083
8.42424	1.08559	0.983583	45.8084
8.52525	1.08559	0.983583	45.6081
8.62626	1.08559	0.983583	45.4074
8.72727	1.08559	0.983583	45.2065
8.82828	1.08559	0.983583	45.0053
8.92929	1.08559	0.983583	44.8039
9.0303	1.08559	0.983583	44.6024
9.13131	1.08559	0.983583	44.4008
9.23232	1.08559	0.983583	44.1991
9.33333	1.08559	0.983583	43.9974
9.43434	1.08559	0.983583	43.7956
9.53535	1.08559	0.983583	43.5937
9.63636	1.08559	0.983583	43.3918
9.73737	1.08559	0.983583	43.1899
9.83838	1.08559	0.983583	42.988
9.93939	1.08559	0.983583	42.786
10.0404	1.08559	0.983583	42.5841
10.1414	1.08559	0.983583	42.3821
10.2424	1.08559	0.983583	42.1801
10.3434	1.08559	0.983583	41.9781
10.4444	1.08559	0.983583	41.7761
10.5455	1.08559	0.983583	41.5741
10.6465	1.08559	0.983583	41.3721
10.7475	1.08559	0.983583	41.17
10.8485	1.08559	0.983583	40.968
10.9495	1.08559	0.983583	40.766
11.0505	1.08559	0.983583	40.5639
11.1515	1.08559	0.983583	40.3619
