log(E/eV)	z/pc	t/yr	Synchr	IC	IC - IR	SSC
-6	10	32.7213	36.8267	0	0	0
-5.2069	10	32.7213	37.262	0	0	26.6188
-4.41379	10	32.7213	37.6659	0	0	28.0085
-3.62069	10	32.7213	38.0502	0	21.9077	29.103
-2.82759	10	32.7213	38.4214	0	24.9884	29.9629
-2.03448	10	32.7213	38.7929	0	27.4188	30.6609
-1.24138	10	32.7213	39.1867	23.4338	29.5165	31.2663
-0.448276	10	32.7213	39.5937	26.0067	30.9658	31.8071
0.344828	10	32.7213	39.9759	28.3141	32.0831	32.317
1.13793	10	32.7213	40.3022	30.2464	32.9281	32.799
1.93103	10	32.7213	40.5423	31.581	33.5661	33.2663
2.72414	10	32.7213	40.6893	32.6254	34.0757	33.7161
3.51724	10	32.7213	40.7597	33.4079	34.5139	34.1645
4.31034	10	32.7213	40.7722	33.9907	34.9417	34.5843
5.10345	10	32.7213	40.7355	34.4902	35.3458	35.0217
5.89655	10	32.7213	40.6681	34.9175	35.7315	35.4255
6.68966	10	32.7213	40.5511	35.3368	36.112	35.8073
7.48276	10	32.7213	40.3227	35.6742	36.4596	36.1585
8.27586	10	32.7213	39.888	36.0212	36.9418	36.4791
9.06897	10	32.7213	39.0526	36.2913	37.3	36.7709
9.86207	10	32.7213	37.2911	36.5319	37.5581	37.0099
10.6552	10	32.7213	34.8521	36.6056	37.8713	37.1174
11.4483	10	32.7213	29.8221	35.9413	37.7877	37.0418
12.2414	10	32.7213	10.5568	34.6073	37.4704	36.68
13.0345	10	32.7213	-114.594	32.7991	36.5078	36.2039
13.8276	10	32.7213	0	30.8642	34.83	35.3885
14.6207	10	32.7213	0	28.1062	32.1406	33.6611
15.4138	10	32.7213	0	20.1857	24.232	26.6558
16.2069	10	32.7213	0	0	0	0
17	10	32.7213	0	0	0	0
-5.45569	10.8264	5.24137	39.7176	0	0	0
-4.66259	10.8264	5.24137	40.1475	0	0	30.4002
-3.86948	10.8264	5.24137	40.5485	0	0	31.7429
-3.07638	10.8264	5.24137	40.9291	0	26.9487	32.7692
-2.28328	10.8264	5.24137	41.2886	0	29.8211	33.589
-1.49017	10.8264	5.24137	41.6223	0	32.0614	34.2665
-0.697068	10.8264	5.24137	41.9236	28.2288	33.6683	34.8596
0.0960353	10.8264	5.24137	42.1675	30.7495	34.8102	35.391
0.889139	10.8264	5.24137	42.3279	32.8538	35.6724	35.89
1.68224	10.8264	5.24137	42.4229	34.2911	36.3517	36.3566
2.47535	10.8264	5.24137	42.4756	35.3509	36.8743	36.8011
3.26845	10.8264	5.24137	42.5015	36.1574	37.3342	37.2154
4.06155	10.8264	5.24137	42.5061	36.7786	37.7744	37.6187
4.85466	10.8264	5.24137	42.4865	37.3024	38.1645	37.9538
5.64776	10.8264	5.24137	42.4349	37.7539	38.5413	38.3239
6.44086	10.8264	5.24137	42.3622	38.1661	38.916	38.6445
7.23397	10.8264	5.24137	42.2419	38.5427	39.2146	38.9429
8.02707	10.8264	5.24137	42.0088	38.9464	39.4722	39.2071
8.82017	10.8264	5.24137	41.5684	39.2455	39.739	39.4381
9.61328	10.8264	5.24137	40.7264	39.4344	39.8115	39.6085
10.4064	10.8264	5.24137	38.9174	39.5145	39.8863	39.6728
11.1995	10.8264	5.24137	36.2647	39.4045	39.8579	39.5696
11.9926	10.8264	5.24137	31.239	38.801	39.7714	39.3715
12.7857	10.8264	5.24137	10.2942	37.4306	39.5585	39.0097
13.5788	10.8264	5.24137	-125.286	35.6319	38.8821	38.5679
14.3719	10.8264	5.24137	0	33.7043	37.5477	37.7726
15.165	10.8264	5.24137	0	30.9451	34.9533	36.0541
15.9581	10.8264	5.24137	0	23.0251	27.08	29.0529
16.7512	10.8264	5.24137	0	0	0	0
17.5443	10.8264	5.24137	0	0	0	0
-5.45319	11.721	5.6129	40.2151	0	0	0
-4.66009	11.721	5.6129	40.6418	0	0	31.4386
-3.86699	11.721	5.6129	41.0404	0	0	32.7654
-3.07388	11.721	5.6129	41.4166	0	27.5814	33.7661
-2.28078	11.721	5.6129	41.7643	0	30.4512	34.5706
-1.48768	11.721	5.6129	42.0721	0	32.6884	35.2395
-0.694572	11.721	5.6129	42.3345	28.8603	34.2856	35.8267
0.0985311	11.721	5.6129	42.5365	31.3788	35.4032	36.3529
0.891635	11.721	5.6129	42.6633	33.4792	36.2404	36.8461
1.68474	11.721	5.6129	42.7374	34.9039	36.9075	37.3056
2.47784	11.721	5.6129	42.7791	35.9352	37.4248	37.7408
3.27094	11.721	5.6129	42.7995	36.7211	37.8825	38.1418
4.06405	11.721	5.6129	42.801	37.3324	38.3218	38.5301
4.85715	11.721	5.6129	42.7792	37.852	38.7108	38.8426
5.65026	11.721	5.6129	42.7257	38.3018	39.0821	39.1965
6.44336	11.721	5.6129	42.6528	38.7131	39.4402	39.4958
7.23646	11.721	5.6129	42.5308	39.0874	39.7019	39.7709
8.02957	11.721	5.6129	42.2934	39.4844	39.9156	40.0088
8.82267	11.721	5.6129	41.8474	39.7608	40.1533	40.2118
9.61577	11.721	5.6129	41.0001	39.9061	40.1972	40.3514
10.4089	11.721	5.6129	39.1608	39.9406	40.2603	40.3861
11.202	11.721	5.6129	36.2524	39.794	40.2255	40.2727
11.9951	11.721	5.6129	31.2306	39.1748	40.1366	40.0842
12.7882	11.721	5.6129	8.46765	37.7993	39.9221	39.7432
13.5813	11.721	5.6129	-138.404	35.9998	39.2476	39.3182
14.3744	11.721	5.6129	0	34.0722	37.915	38.5358
15.1675	11.721	5.6129	0	31.3131	35.3209	36.8249
15.9606	11.721	5.6129	0	23.3931	27.4476	29.8279
16.7537	11.721	5.6129	0	0	0	0
17.5468	11.721	5.6129	0	0	0	0
-5.45072	12.6896	6.01119	40.526	0	0	0
-4.65761	12.6896	6.01119	40.9498	0	0	32.0847
-3.86451	12.6896	6.01119	41.3458	0	0	33.4004
-3.07141	12.6896	6.01119	41.7166	0	28.0066	34.3824
-2.2783	12.6896	6.01119	42.0518	0	30.8744	35.1752
-1.4852	12.6896	6.01119	42.3369	0	33.1093	35.8373
-0.692095	12.6896	6.01119	42.5709	29.2845	34.6991	36.4195
0.101008	12.6896	6.01119	42.7456	31.8014	35.7989	36.941
0.894111	12.6896	6.01119	42.8528	33.8987	36.6174	37.4292
1.68721	12.6896	6.01119	42.9154	35.3142	37.2753	37.8825
2.48032	12.6896	6.01119	42.9511	36.3244	37.7885	38.3099
3.27342	12.6896	6.01119	42.9683	37.0949	38.2446	38.7
4.06653	12.6896	6.01119	42.9677	37.6987	38.683	39.0766
4.85963	12.6896	6.01119	42.9439	38.2151	39.0702	39.372
5.65273	12.6896	6.01119	42.8882	38.6634	39.4351	39.713
6.44584	12.6896	6.01119	42.8146	39.0737	39.7776	39.9958
7.23894	12.6896	6.01119	42.6905	39.4452	40.0106	40.2529
8.03204	12.6896	6.01119	42.4484	39.8346	40.1956	40.4716
8.82515	12.6896	6.01119	41.9963	40.0908	40.4161	40.6549
9.61825	12.6896	6.01119	41.1439	40.2042	40.4446	40.7744
10.4114	12.6896	6.01119	39.2873	40.2104	40.5017	40.7917
11.2045	12.6896	6.01119	36.0856	40.0435	40.4638	40.6756
11.9976	12.6896	6.01119	31.0663	39.4177	40.3739	40.4955
12.7907	12.6896	6.01119	6.33491	38.0401	40.1582	40.1693
13.5838	12.6896	6.01119	-152.761	36.2403	39.4858	39.7563
14.3769	12.6896	6.01119	0	34.3128	38.155	38.985
15.17	12.6896	6.01119	0	31.5538	35.5613	37.2814
15.9631	12.6896	6.01119	0	23.6339	27.6881	30.2889
16.7562	12.6896	6.01119	0	0	0	0
17.5493	12.6896	6.01119	0	0	0	0
-5.44826	13.7382	6.43819	40.7426	0	0	0
-4.65515	13.7382	6.43819	41.1636	0	0	32.5296
-3.86205	13.7382	6.43819	41.5565	0	0	33.8372
-3.06895	13.7382	6.43819	41.9214	0	28.3237	34.8047
-2.27584	13.7382	6.43819	42.2439	0	31.19	35.5883
-1.48274	13.7382	6.43819	42.5089	0	33.4228	36.2447
-0.689637	13.7382	6.43819	42.7209	29.6007	35.0067	36.8225
0.103466	13.7382	6.43819	42.8757	32.1165	36.0931	37.3398
0.89657	13.7382	6.43819	42.9695	34.2111	36.8969	37.8234
1.68967	13.7382	6.43819	43.0246	35.6194	37.5476	38.2713
2.48278	13.7382	6.43819	43.0563	36.6134	38.0576	38.6918
3.27588	13.7382	6.43819	43.0711	37.3719	38.5123	39.0725
4.06898	13.7382	6.43819	43.0687	37.9698	38.9498	39.4391
4.86209	13.7382	6.43819	43.0428	38.4836	39.335	39.7203
5.65519	13.7382	6.43819	42.9847	38.9308	39.693	40.0502
6.44829	13.7382	6.43819	42.9097	39.3399	40.0213	40.3191
7.2414	13.7382	6.43819	42.783	39.7081	40.231	40.5616
8.0345	13.7382	6.43819	42.5355	40.0899	40.3951	40.7651
8.8276	13.7382	6.43819	42.0765	40.3283	40.6037	40.9335
9.62071	13.7382	6.43819	41.219	40.4168	40.6223	41.0382
10.4138	13.7382	6.43819	39.3531	40.403	40.6758	41.0437
11.2069	13.7382	6.43819	35.8261	40.2227	40.636	40.9274
12	13.7382	6.43819	30.8056	39.5938	40.5455	40.7544
12.7931	13.7382	6.43819	3.94308	38.2153	40.3289	40.4398
13.5862	13.7382	6.43819	-168.387	36.4155	39.6587	40.036
14.3793	13.7382	6.43819	0	34.488	38.3297	39.2743
15.1724	13.7382	6.43819	0	31.7292	35.7364	37.5778
15.9655	13.7382	6.43819	0	23.8093	27.8632	30.5901
16.7586	13.7382	6.43819	0	0	0	0
17.5517	13.7382	6.43819	0	0	0	0
-5.44582	14.8735	6.89599	40.9027	0	0	0
-4.65271	14.8735	6.89599	41.3209	0	0	32.8528
-3.85961	14.8735	6.89599	41.7104	0	0	34.154
-3.06651	14.8735	6.89599	42.0688	0	28.5748	35.1102
-2.2734	14.8735	6.89599	42.3786	0	31.4398	35.8862
-1.4803	14.8735	6.89599	42.6255	0	33.6708	36.5378
-0.687197	14.8735	6.89599	42.8197	29.851	35.2497	37.1115
0.105906	14.8735	6.89599	42.9589	32.3658	36.3254	37.625
0.89901	14.8735	6.89599	43.0427	34.458	37.1176	38.1045
1.69211	14.8735	6.89599	43.0922	35.8605	37.7625	38.5473
2.48522	14.8735	6.89599	43.1209	36.8417	38.2698	38.9614
3.27832	14.8735	6.89599	43.1337	37.5906	38.7233	39.3335
4.07142	14.8735	6.89599	43.1295	38.1836	39.1599	39.6911
4.86453	14.8735	6.89599	43.1014	38.6953	39.5427	39.96
5.65763	14.8735	6.89599	43.0406	39.1414	39.8939	40.2798
6.45073	14.8735	6.89599	42.9638	39.5493	40.2092	40.5368
7.24384	14.8735	6.89599	42.8338	39.9139	40.3991	40.7667
8.03694	14.8735	6.89599	42.5802	40.2882	40.5469	40.9576
8.83004	14.8735	6.89599	42.1131	40.5107	40.7465	41.1139
9.62315	14.8735	6.89599	41.25	40.5786	40.7582	41.2071
10.4163	14.8735	6.89599	39.3795	40.5497	40.8091	41.204
11.2094	14.8735	6.89599	35.5031	40.3596	40.768	41.0885
12.0025	14.8735	6.89599	30.4714	39.7294	40.6772	40.9216
12.7956	14.8735	6.89599	1.30166	38.3505	40.4597	40.6165
13.5887	14.8735	6.89599	-185.357	36.5508	39.7917	40.2202
14.3818	14.8735	6.89599	0	34.6234	38.4645	39.4672
15.1749	14.8735	6.89599	0	31.8647	35.8715	37.7775
15.968	14.8735	6.89599	0	23.9449	27.9984	30.7948
16.7611	14.8735	6.89599	0	0	0	0
17.5542	14.8735	6.89599	0	0	0	0
-5.4434	16.1026	7.38683	41.0254	0	0	0
-4.65029	16.1026	7.38683	41.4407	0	0	33.095
-3.85719	16.1026	7.38683	41.8267	0	0	34.3912
-3.06409	16.1026	7.38683	42.178	0	28.7816	35.338
-2.27098	16.1026	7.38683	42.4752	0	31.6455	36.1078
-1.47788	16.1026	7.38683	42.7053	0	33.8748	36.755
-0.684776	16.1026	7.38683	42.8846	30.0571	35.4494	37.3251
0.108328	16.1026	7.38683	43.011	32.5711	36.5164	37.8349
0.901431	16.1026	7.38683	43.0869	34.6612	37.299	38.3105
1.69453	16.1026	7.38683	43.1321	36.0587	37.9392	38.7485
2.48764	16.1026	7.38683	43.1583	37.0293	38.4442	39.1566
3.28074	16.1026	7.38683	43.1694	37.7703	38.8966	39.5208
4.07385	16.1026	7.38683	43.1634	38.3593	39.3322	39.8701
4.86695	16.1026	7.38683	43.133	38.8693	39.7126	40.1277
5.66005	16.1026	7.38683	43.0692	39.3144	40.0569	40.4383
6.45316	16.1026	7.38683	42.99	39.721	40.3601	40.6844
7.24626	16.1026	7.38683	42.8561	40.0818	40.5327	40.9034
8.03936	16.1026	7.38683	42.5955	40.4488	40.6672	41.0835
8.83247	16.1026	7.38683	42.1191	40.6567	40.8595	41.2295
9.62557	16.1026	7.38683	41.2494	40.7071	40.8659	41.3131
10.4187	16.1026	7.38683	39.3767	40.666	40.915	41.3034
11.2118	16.1026	7.38683	35.1422	40.4682	40.873	41.1893
12.0049	16.1026	7.38683	30.0739	39.8378	40.7819	41.0277
12.798	16.1026	7.38683	-1.59366	38.4588	40.5636	40.7306
13.5911	16.1026	7.38683	-203.764	36.6592	39.8978	40.3408
14.3842	16.1026	7.38683	0	34.7319	38.5724	39.5958
15.1773	16.1026	7.38683	0	31.9733	35.9798	37.9127
15.9704	16.1026	7.38683	0	24.0535	28.1067	30.9351
16.7635	16.1026	7.38683	0	0	0	0
17.5566	16.1026	7.38683	0	0	0	0
-5.44099	17.4333	7.91315	41.0492	0	0	0
-4.64789	17.4333	7.91315	41.4617	0	0	33.1348
-3.85479	17.4333	7.91315	41.8437	0	0	34.4268
-3.06168	17.4333	7.91315	42.1876	0	28.8843	35.3659
-2.26858	17.4333	7.91315	42.4721	0	31.7472	36.1302
-1.47548	17.4333	7.91315	42.6863	0	33.975	36.7735
-0.682372	17.4333	7.91315	42.853	30.1591	35.5456	37.3402
0.110732	17.4333	7.91315	42.9686	32.6724	36.6053	37.8465
0.903835	17.4333	7.91315	43.038	34.7604	37.3799	38.3185
1.69694	17.4333	7.91315	43.0797	36.1536	38.0162	38.7518
2.49004	17.4333	7.91315	43.1038	37.1154	38.5192	39.1541
3.28315	17.4333	7.91315	43.1133	37.8499	38.9707	39.5107
4.07625	17.4333	7.91315	43.1055	38.4354	39.4052	39.852
4.86935	17.4333	7.91315	43.0726	38.9439	39.7829	40.0993
5.66246	17.4333	7.91315	43.0058	39.388	40.1203	40.401
6.45556	17.4333	7.91315	42.9236	39.7932	40.4122	40.6372
7.24866	17.4333	7.91315	42.7852	40.1501	40.5694	40.8464
8.04177	17.4333	7.91315	42.5166	40.51	40.6925	41.0169
8.83487	17.4333	7.91315	42.0291	40.7043	40.8787	41.1541
9.62797	17.4333	7.91315	41.1514	40.7393	40.8811	41.2296
10.4211	17.4333	7.91315	39.2777	40.6881	40.9286	41.2145
11.2142	17.4333	7.91315	34.7102	40.4841	40.886	41.1019
12.0073	17.4333	7.91315	29.5452	39.8541	40.7948	40.9452
12.8004	17.4333	7.91315	-4.82665	38.4752	40.5757	40.6551
13.5935	17.4333	7.91315	-223.791	36.6756	39.912	40.271
14.3866	17.4333	7.91315	0	34.7485	38.5885	39.5336
15.1797	17.4333	7.91315	0	31.9901	35.9962	37.8569
15.9728	17.4333	7.91315	0	24.0703	28.1232	30.8846
16.7659	17.4333	7.91315	0	0	0	0
17.559	17.4333	7.91315	0	0	0	0
-5.43861	18.8739	8.47752	41.0554	0	0	0
-4.6455	18.8739	8.47752	41.4649	0	0	33.1357
-3.8524	18.8739	8.47752	41.8427	0	0	34.4242
-3.0593	18.8739	8.47752	42.1789	0	28.9652	35.3567
-2.26619	18.8739	8.47752	42.4506	0	31.8272	36.1162
-1.47309	18.8739	8.47752	42.6496	0	34.0536	36.7559
-0.679985	18.8739	8.47752	42.8052	30.2394	35.6205	37.3194
0.113118	18.8739	8.47752	42.9115	32.7521	36.674	37.8224
0.906222	18.8739	8.47752	42.9755	34.8382	37.4419	38.2908
1.69933	18.8739	8.47752	43.0142	36.2274	38.0747	38.7196
2.49243	18.8739	8.47752	43.0366	37.1818	38.5761	39.1163
3.28553	18.8739	8.47752	43.0446	37.9106	39.0266	39.4655
4.07864	18.8739	8.47752	43.0351	38.4932	39.46	39.7991
4.87174	18.8739	8.47752	42.9997	39.0003	39.8348	40.0365
5.66484	18.8739	8.47752	42.9298	39.4435	40.1655	40.3298
6.45795	18.8739	8.47752	42.8442	39.8472	40.4466	40.5568
7.25105	18.8739	8.47752	42.7005	40.2001	40.5897	40.757
8.04415	18.8739	8.47752	42.4228	40.5529	40.7028	40.9189
8.83726	18.8739	8.47752	41.9223	40.7345	40.8838	41.0482
9.63036	18.8739	8.47752	41.0347	40.7557	40.883	41.1165
10.4235	18.8739	8.47752	39.1604	40.6957	40.9292	41.097
11.2166	18.8739	8.47752	34.3377	40.4866	40.8861	40.9861
12.0097	18.8739	8.47752	28.9611	39.8573	40.7948	40.8339
12.8028	18.8739	8.47752	-8.33851	38.4787	40.575	40.5501
13.5959	18.8739	8.47752	-245.485	36.6793	39.9135	40.171
14.389	18.8739	8.47752	0	34.7523	38.5917	39.4409
15.1821	18.8739	8.47752	0	31.994	35.9997	37.7705
15.9752	18.8739	8.47752	0	24.0743	28.1268	30.8037
16.7683	18.8739	8.47752	0	0	0	0
17.5614	18.8739	8.47752	0	0	0	0
-5.43624	20.4336	9.08273	41.0578	0	0	0
-4.64313	20.4336	9.08273	41.4644	0	0	33.1263
-3.85003	20.4336	9.08273	41.8376	0	0	34.4118
-3.05693	20.4336	9.08273	42.1657	0	29.039	35.3384
-2.26382	20.4336	9.08273	42.4245	0	31.9002	36.0936
-1.47072	20.4336	9.08273	42.6089	0	34.1251	36.7301
-0.677616	20.4336	9.08273	42.7546	30.3126	35.6887	37.2905
0.115487	20.4336	9.08273	42.8528	32.8247	36.7367	37.7903
0.908591	20.4336	9.08273	42.9122	34.9089	37.4988	38.2551
1.70169	20.4336	9.08273	42.9484	36.2947	38.1287	38.6795
2.4948	20.4336	9.08273	42.9692	37.2425	38.6285	39.0706
3.2879	20.4336	9.08273	42.9758	37.9665	39.0781	39.4126
4.081	20.4336	9.08273	42.9647	38.5465	39.5103	39.7386
4.87411	20.4336	9.08273	42.9269	39.0523	39.8823	39.9666
5.66721	20.4336	9.08273	42.8539	39.4946	40.2061	40.2518
6.46031	20.4336	9.08273	42.7646	39.8968	40.4768	40.47
7.25342	20.4336	9.08273	42.615	40.2455	40.6068	40.662
8.04652	20.4336	9.08273	42.327	40.5913	40.7113	40.816
8.83963	20.4336	9.08273	41.8111	40.7609	40.8875	40.9381
9.63273	20.4336	9.08273	40.9112	40.7694	40.8841	41
10.4258	20.4336	9.08273	39.0364	40.7019	40.9293	40.9768
11.2189	20.4336	9.08273	34.0682	40.4882	40.8858	40.8678
12.012	20.4336	9.08273	28.3306	39.8601	40.7944	40.7197
12.8051	20.4336	9.08273	-12.1388	38.4819	40.5739	40.4416
13.5982	20.4336	9.08273	-268.97	36.6826	39.9146	40.0672
14.3913	20.4336	9.08273	0	34.7558	38.5945	39.344
15.1845	20.4336	9.08273	0	31.9975	36.0029	37.6799
15.9776	20.4336	9.08273	0	24.0778	28.1301	30.7186
16.7707	20.4336	9.08273	0	0	0	0
17.5638	20.4336	9.08273	0	0	0	0
-5.43388	22.1222	9.73177	41.0573	0	0	0
-4.64078	22.1222	9.73177	41.4608	0	0	33.1089
-3.84768	22.1222	9.73177	41.8293	0	0	34.3917
-3.05457	22.1222	9.73177	42.1489	0	29.1071	35.3133
-2.26147	22.1222	9.73177	42.3946	0	31.9675	36.0646
-1.46837	22.1222	9.73177	42.565	0	34.1911	36.6978
-0.675264	22.1222	9.73177	42.7019	30.3801	35.7515	37.2553
0.117839	22.1222	9.73177	42.7929	32.8917	36.7947	37.7519
0.910943	22.1222	9.73177	42.8482	34.9741	37.5517	38.2134
1.70405	22.1222	9.73177	42.8823	36.3566	38.179	38.6333
2.49715	22.1222	9.73177	42.9017	37.2987	38.6774	39.0188
3.29025	22.1222	9.73177	42.9072	38.0184	39.1262	39.3538
4.08336	22.1222	9.73177	42.8945	38.5962	39.557	39.6723
4.87646	22.1222	9.73177	42.8544	39.1009	39.926	39.8911
5.66956	22.1222	9.73177	42.7785	39.5423	40.243	40.1684
6.46267	22.1222	9.73177	42.6853	39.9427	40.5037	40.3783
7.25577	22.1222	9.73177	42.5291	40.2871	40.6215	40.5626
8.04887	22.1222	9.73177	42.2297	40.6261	40.7181	40.7093
8.84198	22.1222	9.73177	41.6956	40.784	40.8901	40.8249
9.63508	22.1222	9.73177	40.7802	40.781	40.8846	40.881
10.4282	22.1222	9.73177	38.9047	40.7067	40.9288	40.8546
11.2213	22.1222	9.73177	33.8752	40.4891	40.885	40.7475
12.0144	22.1222	9.73177	27.6497	39.8624	40.7936	40.6033
12.8075	22.1222	9.73177	-16.2513	38.4845	40.5724	40.3304
13.6006	22.1222	9.73177	0	36.6855	39.9152	39.9603
14.3937	22.1222	9.73177	0	34.7587	38.5969	39.2438
15.1868	22.1222	9.73177	0	32.0006	36.0057	37.5859
15.9799	22.1222	9.73177	0	24.081	28.1329	30.6303
16.773	22.1222	9.73177	0	0	0	0
17.5661	22.1222	9.73177	0	0	0	0
-5.43155	23.9503	10.4278	41.0545	0	0	0
-4.63845	23.9503	10.4278	41.4549	0	0	33.0853
-3.84534	23.9503	10.4278	41.8184	0	0	34.3656
-3.05224	23.9503	10.4278	42.1292	0	29.1705	35.2826
-2.25914	23.9503	10.4278	42.3618	0	32.0302	36.0303
-1.46603	23.9503	10.4278	42.5185	0	34.2525	36.6606
-0.672929	23.9503	10.4278	42.6473	30.443	35.8098	37.2152
0.120175	23.9503	10.4278	42.732	32.9541	36.8487	37.7088
0.913278	23.9503	10.4278	42.7838	35.0347	37.6012	38.1668
1.70638	23.9503	10.4278	42.8161	36.4141	38.2263	38.5823
2.49948	23.9503	10.4278	42.8343	37.3512	38.7234	38.9622
3.29259	23.9503	10.4278	42.8387	38.0672	39.1713	39.2901
4.08569	23.9503	10.4278	42.8246	38.6429	39.6008	39.6011
4.8788	23.9503	10.4278	42.7825	39.1465	39.9665	39.8111
5.6719	23.9503	10.4278	42.704	39.5869	40.2767	40.0807
6.465	23.9503	10.4278	42.6068	39.9856	40.5276	40.2827
7.25811	23.9503	10.4278	42.4436	40.3256	40.6339	40.4597
8.05121	23.9503	10.4278	42.1317	40.6577	40.7234	40.5997
8.84431	23.9503	10.4278	41.5764	40.8044	40.8917	40.7093
9.63742	23.9503	10.4278	40.6412	40.7906	40.8843	40.7601
10.4305	23.9503	10.4278	38.7645	40.7103	40.9277	40.7309
11.2236	23.9503	10.4278	33.714	40.4893	40.8837	40.6257
12.0167	23.9503	10.4278	26.9144	39.864	40.7923	40.4852
12.8098	23.9503	10.4278	-20.7018	38.4867	40.5704	40.2171
13.6029	23.9503	10.4278	0	36.6878	39.9154	39.851
14.396	23.9503	10.4278	0	34.7612	38.5988	39.141
15.1891	23.9503	10.4278	0	32.0032	36.0079	37.4892
15.9822	23.9503	10.4278	0	24.0836	28.1351	30.5395
16.7753	23.9503	10.4278	0	0	0	0
17.5685	23.9503	10.4278	0	0	0	0
-5.42923	25.9294	11.1744	41.0498	0	0	0
-4.63613	25.9294	11.1744	41.447	0	0	33.0564
-3.84302	25.9294	11.1744	41.8052	0	0	34.3345
-3.04992	25.9294	11.1744	42.1069	0	29.23	35.2473
-2.25682	25.9294	11.1744	42.3264	0	32.089	35.9917
-1.46371	25.9294	11.1744	42.4699	0	34.31	36.6192
-0.67061	25.9294	11.1744	42.5913	30.5019	35.8644	37.1711
0.122493	25.9294	11.1744	42.6702	33.0125	36.8993	37.6616
0.915597	25.9294	11.1744	42.7191	35.0915	37.6479	38.1163
1.7087	25.9294	11.1744	42.7497	36.468	38.2709	38.5273
2.5018	25.9294	11.1744	42.767	37.4004	38.7669	38.9016
3.29491	25.9294	11.1744	42.7705	38.1131	39.2138	39.2224
4.08801	25.9294	11.1744	42.7552	38.6869	39.6419	39.5261
4.88111	25.9294	11.1744	42.7111	39.1895	40.0043	39.7273
5.67422	25.9294	11.1744	42.6307	39.629	40.3075	39.9894
6.46732	25.9294	11.1744	42.5296	40.0258	40.549	40.1839
7.26042	25.9294	11.1744	42.3591	40.3613	40.6442	40.3541
8.05353	25.9294	11.1744	42.0337	40.6865	40.7273	40.4877
8.84663	25.9294	11.1744	41.4541	40.8223	40.8921	40.5916
9.63973	25.9294	11.1744	40.4935	40.7984	40.8833	40.6375
10.4328	25.9294	11.1744	38.615	40.7126	40.926	40.606
11.2259	25.9294	11.1744	33.5581	40.4886	40.8818	40.5027
12.019	25.9294	11.1744	26.1202	39.865	40.7903	40.3656
12.8121	25.9294	11.1744	-25.5183	38.4882	40.5678	40.102
13.6053	25.9294	11.1744	0	36.6895	39.9149	39.7397
14.3984	25.9294	11.1744	0	34.763	38.6	39.036
15.1915	25.9294	11.1744	0	32.0052	36.0095	37.3902
15.9846	25.9294	11.1744	0	24.0856	28.1368	30.4464
16.7777	25.9294	11.1744	0	0	0	0
17.5708	25.9294	11.1744	0	0	0	0
