log(E / eV)	log(z / pc)	t / yr	 logQ
6	1.69897	0	56.9157
6.10101	1.69897	0	57.1556
6.20202	1.69897	0	57.3037
6.30303	1.69897	0	57.3792
6.40404	1.69897	0	57.3972
6.50505	1.69897	0	57.3696
6.60606	1.69897	0	57.3059
6.70707	1.69897	0	57.2135
6.80808	1.69897	0	57.0984
6.90909	1.69897	0	56.9653
7.0101	1.69897	0	56.8179
7.11111	1.69897	0	56.6591
7.21212	1.69897	0	56.4914
7.31313	1.69897	0	56.3166
7.41414	1.69897	0	56.1361
7.51515	1.69897	0	55.9512
7.61616	1.69897	0	55.7627
7.71717	1.69897	0	55.5714
7.81818	1.69897	0	55.3779
7.91919	1.69897	0	55.1826
8.0202	1.69897	0	54.9859
8.12121	1.69897	0	54.7881
8.22222	1.69897	0	54.5895
8.32323	1.69897	0	54.3901
8.42424	1.69897	0	54.1902
8.52525	1.69897	0	53.9898
8.62626	1.69897	0	53.7891
8.72727	1.69897	0	53.5882
8.82828	1.69897	0	53.387
8.92929	1.69897	0	53.1856
9.0303	1.69897	0	52.9841
9.13131	1.69897	0	52.7825
9.23232	1.69897	0	52.5808
9.33333	1.69897	0	52.379
9.43434	1.69897	0	52.1772
9.53535	1.69897	0	51.9754
9.63636	1.69897	0	51.7735
9.73737	1.69897	0	51.5716
9.83838	1.69897	0	51.3696
9.93939	1.69897	0	51.1677
10.0404	1.69897	0	50.9657
10.1414	1.69897	0	50.7637
10.2424	1.69897	0	50.5617
10.3434	1.69897	0	50.3597
10.4444	1.69897	0	50.1577
10.5455	1.69897	0	49.9557
10.6465	1.69897	0	49.7537
10.7475	1.69897	0	49.5517
10.8485	1.69897	0	49.3497
10.9495	1.69897	0	49.1477
11.0505	1.69897	0	48.9456
11.1515	1.69897	0	48.7436
11.2525	1.69897	0	48.5416
11.3535	1.69897	0	48.3395
11.4545	1.69897	0	48.1375
11.5556	1.69897	0	47.9355
11.6566	1.69897	0	47.7334
11.7576	1.69897	0	47.5313
11.8586	1.69897	0	47.3293
11.9596	1.69897	0	47.1272
12.0606	1.69897	0	46.9251
12.1616	1.69897	0	46.7229
12.2626	1.69897	0	46.5208
12.3636	1.69897	0	46.3186
12.4646	1.69897	0	46.1163
12.5657	1.69897	0	45.9139
12.6667	1.69897	0	45.7115
12.7677	1.69897	0	45.5087
12.8687	1.69897	0	45.3053
12.9697	1.69897	0	45.1001
13.0707	1.69897	0	44.8915
13.1717	1.69897	0	44.6773
13.2727	1.69897	0	44.4553
13.3737	1.69897	0	44.2236
13.4747	1.69897	0	43.9811
13.5758	1.69897	0	43.7276
13.6768	1.69897	0	43.4631
13.7778	1.69897	0	43.1881
13.8788	1.69897	0	42.9031
13.9798	1.69897	0	42.6086
14.0808	1.69897	0	42.3052
14.1818	1.69897	0	41.993
14.2828	1.69897	0	41.6719
14.3838	1.69897	0	41.3418
14.4848	1.69897	0	41.0018
14.5859	1.69897	0	40.6512
14.6869	1.69897	0	40.2885
14.7879	1.69897	0	39.912
14.8889	1.69897	0	39.5193
14.9899	1.69897	0	39.1075
15.0909	1.69897	0	38.6729
15.1919	1.69897	0	38.2108
15.2929	1.69897	0	37.7154
15.3939	1.69897	0	37.1794
15.4949	1.69897	0	36.5938
15.596	1.69897	0	35.9469
15.697	1.69897	0	35.2236
15.798	1.69897	0	34.4007
15.899	1.69897	0	33.4188
16	1.69897	0	-inf
6	1.70511	0.582132	57.2225
6.10101	1.70511	0.582132	57.3936
6.20202	1.70511	0.582132	57.4929
6.30303	1.70511	0.582132	57.5331
6.40404	1.70511	0.582132	57.5252
6.50505	1.70511	0.582132	57.4784
6.60606	1.70511	0.582132	57.4001
6.70707	1.70511	0.582132	57.2966
6.80808	1.70511	0.582132	57.173
6.90909	1.70511	0.582132	57.0333
7.0101	1.70511	0.582132	56.8808
7.11111	1.70511	0.582132	56.7181
7.21212	1.70511	0.582132	56.5473
7.31313	1.70511	0.582132	56.37
7.41414	1.70511	0.582132	56.1876
7.51515	1.70511	0.582132	56.0012
7.61616	1.70511	0.582132	55.8115
7.71717	1.70511	0.582132	55.6192
7.81818	1.70511	0.582132	55.425
7.91919	1.70511	0.582132	55.2291
8.0202	1.70511	0.582132	55.032
8.12121	1.70511	0.582132	54.8338
8.22222	1.70511	0.582132	54.6349
8.32323	1.70511	0.582132	54.4353
8.42424	1.70511	0.582132	54.2352
8.52525	1.70511	0.582132	54.0347
8.62626	1.70511	0.582132	53.8339
8.72727	1.70511	0.582132	53.6328
8.82828	1.70511	0.582132	53.4315
8.92929	1.70511	0.582132	53.2301
9.0303	1.70511	0.582132	53.0286
9.13131	1.70511	0.582132	52.8269
9.23232	1.70511	0.582132	52.6252
9.33333	1.70511	0.582132	52.4234
9.43434	1.70511	0.582132	52.2216
9.53535	1.70511	0.582132	52.0197
9.63636	1.70511	0.582132	51.8178
9.73737	1.70511	0.582132	51.6159
9.83838	1.70511	0.582132	51.414
9.93939	1.70511	0.582132	51.212
10.0404	1.70511	0.582132	51.01
10.1414	1.70511	0.582132	50.808
10.2424	1.70511	0.582132	50.606
10.3434	1.70511	0.582132	50.404
10.4444	1.70511	0.582132	50.202
10.5455	1.70511	0.582132	50
10.6465	1.70511	0.582132	49.798
10.7475	1.70511	0.582132	49.596
10.8485	1.70511	0.582132	49.394
10.9495	1.70511	0.582132	49.192
11.0505	1.70511	0.582132	48.9899
11.1515	1.70511	0.582132	48.7879
11.2525	1.70511	0.582132	48.5859
11.3535	1.70511	0.582132	48.3838
11.4545	1.70511	0.582132	48.1818
11.5556	1.70511	0.582132	47.9797
11.6566	1.70511	0.582132	47.7777
11.7576	1.70511	0.582132	47.5756
11.8586	1.70511	0.582132	47.3734
11.9596	1.70511	0.582132	47.1712
12.0606	1.70511	0.582132	46.9685
12.1616	1.70511	0.582132	46.7652
12.2626	1.70511	0.582132	46.5603
12.3636	1.70511	0.582132	46.3527
12.4646	1.70511	0.582132	46.141
12.5657	1.70511	0.582132	45.9235
12.6667	1.70511	0.582132	45.6989
12.7677	1.70511	0.582132	45.466
12.8687	1.70511	0.582132	45.2241
12.9697	1.70511	0.582132	44.9732
13.0707	1.70511	0.582132	44.7135
13.1717	1.70511	0.582132	44.4456
13.2727	1.70511	0.582132	44.17
13.3737	1.70511	0.582132	43.8875
13.4747	1.70511	0.582132	43.5988
13.5758	1.70511	0.582132	43.3043
13.6768	1.70511	0.582132	43.0045
13.7778	1.70511	0.582132	42.6997
13.8788	1.70511	0.582132	42.39
13.9798	1.70511	0.582132	42.0753
14.0808	1.70511	0.582132	41.7554
14.1818	1.70511	0.582132	41.4299
14.2828	1.70511	0.582132	41.0983
14.3838	1.70511	0.582132	40.7598
14.4848	1.70511	0.582132	40.4133
14.5859	1.70511	0.582132	40.0575
14.6869	1.70511	0.582132	39.6908
14.7879	1.70511	0.582132	39.3111
14.8889	1.70511	0.582132	38.916
14.9899	1.70511	0.582132	38.5024
15.0909	1.70511	0.582132	38.0664
15.1919	1.70511	0.582132	37.6032
15.2929	1.70511	0.582132	37.1071
15.3939	1.70511	0.582132	36.5706
15.4949	1.70511	0.582132	35.9845
15.596	1.70511	0.582132	35.3373
15.697	1.70511	0.582132	34.6137
15.798	1.70511	0.582132	33.7906
15.899	1.70511	0.582132	32.8086
16	1.70511	0.582132	-inf
6	1.71126	0.930549	57.4045
6.10101	1.71126	0.930549	57.5329
6.20202	1.71126	0.930549	57.6033
6.30303	1.71126	0.930549	57.6235
6.40404	1.71126	0.930549	57.6013
6.50505	1.71126	0.930549	57.544
6.60606	1.71126	0.930549	57.4581
6.70707	1.71126	0.930549	57.3488
6.80808	1.71126	0.930549	57.2209
6.90909	1.71126	0.930549	57.0778
7.0101	1.71126	0.930549	56.9228
7.11111	1.71126	0.930549	56.7581
7.21212	1.71126	0.930549	56.5857
7.31313	1.71126	0.930549	56.4072
7.41414	1.71126	0.930549	56.2239
7.51515	1.71126	0.930549	56.0367
7.61616	1.71126	0.930549	55.8464
7.71717	1.71126	0.930549	55.6537
7.81818	1.71126	0.930549	55.4591
7.91919	1.71126	0.930549	55.2629
8.0202	1.71126	0.930549	55.0656
8.12121	1.71126	0.930549	54.8672
8.22222	1.71126	0.930549	54.6681
8.32323	1.71126	0.930549	54.4684
8.42424	1.71126	0.930549	54.2682
8.52525	1.71126	0.930549	54.0677
8.62626	1.71126	0.930549	53.8668
8.72727	1.71126	0.930549	53.6657
8.82828	1.71126	0.930549	53.4644
8.92929	1.71126	0.930549	53.263
9.0303	1.71126	0.930549	53.0614
9.13131	1.71126	0.930549	52.8597
9.23232	1.71126	0.930549	52.658
9.33333	1.71126	0.930549	52.4562
9.43434	1.71126	0.930549	52.2544
9.53535	1.71126	0.930549	52.0525
9.63636	1.71126	0.930549	51.8506
9.73737	1.71126	0.930549	51.6487
9.83838	1.71126	0.930549	51.4467
9.93939	1.71126	0.930549	51.2447
10.0404	1.71126	0.930549	51.0428
10.1414	1.71126	0.930549	50.8408
10.2424	1.71126	0.930549	50.6388
10.3434	1.71126	0.930549	50.4368
10.4444	1.71126	0.930549	50.2348
10.5455	1.71126	0.930549	50.0328
10.6465	1.71126	0.930549	49.8308
10.7475	1.71126	0.930549	49.6287
10.8485	1.71126	0.930549	49.4267
10.9495	1.71126	0.930549	49.2247
11.0505	1.71126	0.930549	49.0227
11.1515	1.71126	0.930549	48.8206
11.2525	1.71126	0.930549	48.6186
11.3535	1.71126	0.930549	48.4166
11.4545	1.71126	0.930549	48.2145
11.5556	1.71126	0.930549	48.0124
11.6566	1.71126	0.930549	47.8103
11.7576	1.71126	0.930549	47.608
11.8586	1.71126	0.930549	47.4054
11.9596	1.71126	0.930549	47.2021
12.0606	1.71126	0.930549	46.9977
12.1616	1.71126	0.930549	46.7912
12.2626	1.71126	0.930549	46.5814
12.3636	1.71126	0.930549	46.3672
12.4646	1.71126	0.930549	46.1469
12.5657	1.71126	0.930549	45.9196
12.6667	1.71126	0.930549	45.6842
12.7677	1.71126	0.930549	45.4402
12.8687	1.71126	0.930549	45.1878
12.9697	1.71126	0.930549	44.927
13.0707	1.71126	0.930549	44.6585
13.1717	1.71126	0.930549	44.3828
13.2727	1.71126	0.930549	44.1006
13.3737	1.71126	0.930549	43.8125
13.4747	1.71126	0.930549	43.5191
13.5758	1.71126	0.930549	43.2208
13.6768	1.71126	0.930549	42.918
13.7778	1.71126	0.930549	42.6107
13.8788	1.71126	0.930549	42.2989
13.9798	1.71126	0.930549	41.9826
14.0808	1.71126	0.930549	41.6615
14.1818	1.71126	0.930549	41.335
14.2828	1.71126	0.930549	41.0026
14.3838	1.71126	0.930549	40.6635
14.4848	1.71126	0.930549	40.3165
14.5859	1.71126	0.930549	39.9603
14.6869	1.71126	0.930549	39.5933
14.7879	1.71126	0.930549	39.2134
14.8889	1.71126	0.930549	38.8182
14.9899	1.71126	0.930549	38.4044
15.0909	1.71126	0.930549	37.9683
15.1919	1.71126	0.930549	37.5051
15.2929	1.71126	0.930549	37.0088
15.3939	1.71126	0.930549	36.4723
15.4949	1.71126	0.930549	35.8862
15.596	1.71126	0.930549	35.239
15.697	1.71126	0.930549	34.5154
15.798	1.71126	0.930549	33.6923
15.899	1.71126	0.930549	32.7103
16	1.71126	0.930549	-inf
6	1.7174	1.20324	57.5593
6.10101	1.7174	1.20324	57.6518
6.20202	1.7174	1.20324	57.6974
6.30303	1.7174	1.20324	57.7002
6.40404	1.7174	1.20324	57.6657
6.50505	1.7174	1.20324	57.5994
6.60606	1.7174	1.20324	57.5069
6.70707	1.7174	1.20324	57.3927
6.80808	1.7174	1.20324	57.261
6.90909	1.7174	1.20324	57.1152
7.0101	1.7174	1.20324	56.9579
7.11111	1.7174	1.20324	56.7915
7.21212	1.7174	1.20324	56.6178
7.31313	1.7174	1.20324	56.4383
7.41414	1.7174	1.20324	56.2542
7.51515	1.7174	1.20324	56.0664
7.61616	1.7174	1.20324	55.8756
7.71717	1.7174	1.20324	55.6825
7.81818	1.7174	1.20324	55.4876
7.91919	1.7174	1.20324	55.2912
8.0202	1.7174	1.20324	55.0937
8.12121	1.7174	1.20324	54.8952
8.22222	1.7174	1.20324	54.6959
8.32323	1.7174	1.20324	54.4961
8.42424	1.7174	1.20324	54.2959
8.52525	1.7174	1.20324	54.0953
8.62626	1.7174	1.20324	53.8943
8.72727	1.7174	1.20324	53.6932
8.82828	1.7174	1.20324	53.4919
8.92929	1.7174	1.20324	53.2904
9.0303	1.7174	1.20324	53.0888
9.13131	1.7174	1.20324	52.8871
9.23232	1.7174	1.20324	52.6854
9.33333	1.7174	1.20324	52.4836
9.43434	1.7174	1.20324	52.2818
9.53535	1.7174	1.20324	52.0799
9.63636	1.7174	1.20324	51.878
9.73737	1.7174	1.20324	51.676
9.83838	1.7174	1.20324	51.4741
9.93939	1.7174	1.20324	51.2721
10.0404	1.7174	1.20324	51.0701
10.1414	1.7174	1.20324	50.8681
10.2424	1.7174	1.20324	50.6661
10.3434	1.7174	1.20324	50.4641
10.4444	1.7174	1.20324	50.2621
10.5455	1.7174	1.20324	50.0601
10.6465	1.7174	1.20324	49.8581
10.7475	1.7174	1.20324	49.6561
10.8485	1.7174	1.20324	49.4541
10.9495	1.7174	1.20324	49.252
11.0505	1.7174	1.20324	49.05
11.1515	1.7174	1.20324	48.848
11.2525	1.7174	1.20324	48.6459
11.3535	1.7174	1.20324	48.4439
11.4545	1.7174	1.20324	48.2417
11.5556	1.7174	1.20324	48.0395
11.6566	1.7174	1.20324	47.837
11.7576	1.7174	1.20324	47.6342
11.8586	1.7174	1.20324	47.4306
11.9596	1.7174	1.20324	47.2256
12.0606	1.7174	1.20324	47.0186
12.1616	1.7174	1.20324	46.8084
12.2626	1.7174	1.20324	46.5939
12.3636	1.7174	1.20324	46.3738
12.4646	1.7174	1.20324	46.147
12.5657	1.7174	1.20324	45.9126
12.6667	1.7174	1.20324	45.6701
12.7677	1.7174	1.20324	45.4194
12.8687	1.7174	1.20324	45.1606
12.9697	1.7174	1.20324	44.8941
13.0707	1.7174	1.20324	44.6206
13.1717	1.7174	1.20324	44.3407
13.2727	1.7174	1.20324	44.0549
13.3737	1.7174	1.20324	43.7638
13.4747	1.7174	1.20324	43.468
13.5758	1.7174	1.20324	43.1677
13.6768	1.7174	1.20324	42.8632
13.7778	1.7174	1.20324	42.5546
13.8788	1.7174	1.20324	42.2418
13.9798	1.7174	1.20324	41.9247
14.0808	1.7174	1.20324	41.6029
14.1818	1.7174	1.20324	41.2759
14.2828	1.7174	1.20324	40.9431
14.3838	1.7174	1.20324	40.6036
14.4848	1.7174	1.20324	40.2564
14.5859	1.7174	1.20324	39.9
14.6869	1.7174	1.20324	39.5329
14.7879	1.7174	1.20324	39.1529
14.8889	1.7174	1.20324	38.7575
14.9899	1.7174	1.20324	38.3437
15.0909	1.7174	1.20324	37.9075
15.1919	1.7174	1.20324	37.4443
15.2929	1.7174	1.20324	36.948
15.3939	1.7174	1.20324	36.4115
15.4949	1.7174	1.20324	35.8254
15.596	1.7174	1.20324	35.1781
15.697	1.7174	1.20324	34.4545
15.798	1.7174	1.20324	33.6314
15.899	1.7174	1.20324	32.6494
16	1.7174	1.20324	-inf
6	1.72354	1.42475	57.6881
6.10101	1.72354	1.42475	57.75
6.20202	1.72354	1.42475	57.774
6.30303	1.72354	1.42475	57.7614
6.40404	1.72354	1.42475	57.7158
6.50505	1.72354	1.42475	57.6415
6.60606	1.72354	1.42475	57.543
6.70707	1.72354	1.42475	57.4244
6.80808	1.72354	1.42475	57.2894
6.90909	1.72354	1.42475	57.141
7.0101	1.72354	1.42475	56.9817
7.11111	1.72354	1.42475	56.8138
7.21212	1.72354	1.42475	56.639
7.31313	1.72354	1.42475	56.4585
7.41414	1.72354	1.42475	56.2737
7.51515	1.72354	1.42475	56.0853
7.61616	1.72354	1.42475	55.8941
7.71717	1.72354	1.42475	55.7007
7.81818	1.72354	1.42475	55.5055
7.91919	1.72354	1.42475	55.3089
8.0202	1.72354	1.42475	55.1111
8.12121	1.72354	1.42475	54.9125
8.22222	1.72354	1.42475	54.7132
8.32323	1.72354	1.42475	54.5133
8.42424	1.72354	1.42475	54.313
8.52525	1.72354	1.42475	54.1123
8.62626	1.72354	1.42475	53.9113
8.72727	1.72354	1.42475	53.7101
8.82828	1.72354	1.42475	53.5088
8.92929	1.72354	1.42475	53.3073
9.0303	1.72354	1.42475	53.1057
9.13131	1.72354	1.42475	52.904
9.23232	1.72354	1.42475	52.7023
9.33333	1.72354	1.42475	52.5004
9.43434	1.72354	1.42475	52.2986
9.53535	1.72354	1.42475	52.0967
9.63636	1.72354	1.42475	51.8948
9.73737	1.72354	1.42475	51.6928
9.83838	1.72354	1.42475	51.4909
9.93939	1.72354	1.42475	51.2889
10.0404	1.72354	1.42475	51.0869
10.1414	1.72354	1.42475	50.885
10.2424	1.72354	1.42475	50.683
10.3434	1.72354	1.42475	50.481
10.4444	1.72354	1.42475	50.2789
10.5455	1.72354	1.42475	50.0769
10.6465	1.72354	1.42475	49.8749
10.7475	1.72354	1.42475	49.6729
10.8485	1.72354	1.42475	49.4709
10.9495	1.72354	1.42475	49.2688
11.0505	1.72354	1.42475	49.0668
11.1515	1.72354	1.42475	48.8647
11.2525	1.72354	1.42475	48.6626
11.3535	1.72354	1.42475	48.4605
11.4545	1.72354	1.42475	48.2582
11.5556	1.72354	1.42475	48.0556
11.6566	1.72354	1.42475	47.8526
11.7576	1.72354	1.42475	47.6488
11.8586	1.72354	1.42475	47.4438
11.9596	1.72354	1.42475	47.2368
12.0606	1.72354	1.42475	47.0269
12.1616	1.72354	1.42475	46.8131
12.2626	1.72354	1.42475	46.5943
12.3636	1.72354	1.42475	46.3693
12.4646	1.72354	1.42475	46.1373
12.5657	1.72354	1.42475	45.8976
12.6667	1.72354	1.42475	45.6501
12.7677	1.72354	1.42475	45.3946
12.8687	1.72354	1.42475	45.1315
12.9697	1.72354	1.42475	44.8612
13.0707	1.72354	1.42475	44.5844
13.1717	1.72354	1.42475	44.3017
13.2727	1.72354	1.42475	44.0136
13.3737	1.72354	1.42475	43.7206
13.4747	1.72354	1.42475	43.4232
13.5758	1.72354	1.42475	43.1216
13.6768	1.72354	1.42475	42.8161
13.7778	1.72354	1.42475	42.5066
13.8788	1.72354	1.42475	42.1932
13.9798	1.72354	1.42475	41.8755
14.0808	1.72354	1.42475	41.5533
14.1818	1.72354	1.42475	41.226
14.2828	1.72354	1.42475	40.893
14.3838	1.72354	1.42475	40.5533
14.4848	1.72354	1.42475	40.2059
14.5859	1.72354	1.42475	39.8494
14.6869	1.72354	1.42475	39.4821
14.7879	1.72354	1.42475	39.1021
14.8889	1.72354	1.42475	38.7067
14.9899	1.72354	1.42475	38.2928
15.0909	1.72354	1.42475	37.8566
15.1919	1.72354	1.42475	37.3933
15.2929	1.72354	1.42475	36.8971
15.3939	1.72354	1.42475	36.3605
15.4949	1.72354	1.42475	35.7744
15.596	1.72354	1.42475	35.1271
15.697	1.72354	1.42475	34.4035
15.798	1.72354	1.42475	33.5804
15.899	1.72354	1.42475	32.5984
16	1.72354	1.42475	-inf
6	1.72969	1.62044	57.7942
6.10101	1.72969	1.62044	57.8318
6.20202	1.72969	1.62044	57.8379
6.30303	1.72969	1.62044	57.8124
6.40404	1.72969	1.62044	57.7574
6.50505	1.72969	1.62044	57.6762
6.60606	1.72969	1.62044	57.5726
6.70707	1.72969	1.62044	57.4502
6.80808	1.72969	1.62044	57.3123
6.90909	1.72969	1.62044	57.1616
7.0101	1.72969	1.62044	57.0007
7.11111	1.72969	1.62044	56.8315
7.21212	1.72969	1.62044	56.6556
7.31313	1.72969	1.62044	56.4744
7.41414	1.72969	1.62044	56.289
7.51515	1.72969	1.62044	56.1001
7.61616	1.72969	1.62044	55.9085
7.71717	1.72969	1.62044	55.7148
7.81818	1.72969	1.62044	55.5193
7.91919	1.72969	1.62044	55.3225
8.0202	1.72969	1.62044	55.1246
8.12121	1.72969	1.62044	54.9259
8.22222	1.72969	1.62044	54.7265
8.32323	1.72969	1.62044	54.5265
8.42424	1.72969	1.62044	54.3261
8.52525	1.72969	1.62044	54.1254
8.62626	1.72969	1.62044	53.9244
8.72727	1.72969	1.62044	53.7232
8.82828	1.72969	1.62044	53.5218
8.92929	1.72969	1.62044	53.3203
9.0303	1.72969	1.62044	53.1187
9.13131	1.72969	1.62044	52.917
9.23232	1.72969	1.62044	52.7152
9.33333	1.72969	1.62044	52.5134
9.43434	1.72969	1.62044	52.3116
9.53535	1.72969	1.62044	52.1097
9.63636	1.72969	1.62044	51.9078
9.73737	1.72969	1.62044	51.7058
9.83838	1.72969	1.62044	51.5039
9.93939	1.72969	1.62044	51.3019
10.0404	1.72969	1.62044	51.0999
10.1414	1.72969	1.62044	50.8979
10.2424	1.72969	1.62044	50.6959
10.3434	1.72969	1.62044	50.4939
10.4444	1.72969	1.62044	50.2919
10.5455	1.72969	1.62044	50.0899
10.6465	1.72969	1.62044	49.8879
10.7475	1.72969	1.62044	49.6858
10.8485	1.72969	1.62044	49.4838
10.9495	1.72969	1.62044	49.2818
11.0505	1.72969	1.62044	49.0797
11.1515	1.72969	1.62044	48.8776
11.2525	1.72969	1.62044	48.6754
11.3535	1.72969	1.62044	48.473
11.4545	1.72969	1.62044	48.2704
11.5556	1.72969	1.62044	48.0673
11.6566	1.72969	1.62044	47.8636
11.7576	1.72969	1.62044	47.6587
11.8586	1.72969	1.62044	47.4521
11.9596	1.72969	1.62044	47.243
12.0606	1.72969	1.62044	47.0305
12.1616	1.72969	1.62044	46.8135
12.2626	1.72969	1.62044	46.5911
12.3636	1.72969	1.62044	46.3623
12.4646	1.72969	1.62044	46.1263
12.5657	1.72969	1.62044	45.8827
12.6667	1.72969	1.62044	45.6315
12.7677	1.72969	1.62044	45.3726
12.8687	1.72969	1.62044	45.1064
12.9697	1.72969	1.62044	44.8335
13.0707	1.72969	1.62044	44.5545
13.1717	1.72969	1.62044	44.2698
13.2727	1.72969	1.62044	43.9801
13.3737	1.72969	1.62044	43.6858
13.4747	1.72969	1.62044	43.3873
13.5758	1.72969	1.62044	43.0849
13.6768	1.72969	1.62044	42.7786
13.7778	1.72969	1.62044	42.4686
13.8788	1.72969	1.62044	42.1548
13.9798	1.72969	1.62044	41.8367
14.0808	1.72969	1.62044	41.5142
14.1818	1.72969	1.62044	41.1867
14.2828	1.72969	1.62044	40.8535
14.3838	1.72969	1.62044	40.5137
14.4848	1.72969	1.62044	40.1662
14.5859	1.72969	1.62044	39.8096
14.6869	1.72969	1.62044	39.4423
14.7879	1.72969	1.62044	39.0622
14.8889	1.72969	1.62044	38.6668
14.9899	1.72969	1.62044	38.2528
15.0909	1.72969	1.62044	37.8166
15.1919	1.72969	1.62044	37.3533
15.2929	1.72969	1.62044	36.8571
15.3939	1.72969	1.62044	36.3204
15.4949	1.72969	1.62044	35.7343
15.596	1.72969	1.62044	35.0871
15.697	1.72969	1.62044	34.3635
15.798	1.72969	1.62044	33.5404
15.899	1.72969	1.62044	32.5584
16	1.72969	1.62044	-inf
6	1.73583	1.78829	57.8804
6.10101	1.73583	1.78829	57.8976
6.20202	1.73583	1.78829	57.8885
6.30303	1.73583	1.78829	57.8516
6.40404	1.73583	1.78829	57.7883
6.50505	1.73583	1.78829	57.701
6.60606	1.73583	1.78829	57.5928
6.70707	1.73583	1.78829	57.4669
6.80808	1.73583	1.78829	57.3264
6.90909	1.73583	1.78829	57.1738
7.0101	1.73583	1.78829	57.0113
7.11111	1.73583	1.78829	56.8409
7.21212	1.73583	1.78829	56.6641
7.31313	1.73583	1.78829	56.4822
7.41414	1.73583	1.78829	56.2962
7.51515	1.73583	1.78829	56.1068
7.61616	1.73583	1.78829	55.9149
7.71717	1.73583	1.78829	55.7209
7.81818	1.73583	1.78829	55.5253
7.91919	1.73583	1.78829	55.3283
8.0202	1.73583	1.78829	55.1303
8.12121	1.73583	1.78829	54.9314
8.22222	1.73583	1.78829	54.7319
8.32323	1.73583	1.78829	54.5319
8.42424	1.73583	1.78829	54.3315
8.52525	1.73583	1.78829	54.1307
8.62626	1.73583	1.78829	53.9297
8.72727	1.73583	1.78829	53.7284
8.82828	1.73583	1.78829	53.527
8.92929	1.73583	1.78829	53.3255
9.0303	1.73583	1.78829	53.1239
9.13131	1.73583	1.78829	52.9222
9.23232	1.73583	1.78829	52.7204
9.33333	1.73583	1.78829	52.5186
9.43434	1.73583	1.78829	52.3167
9.53535	1.73583	1.78829	52.1148
9.63636	1.73583	1.78829	51.9129
9.73737	1.73583	1.78829	51.7109
9.83838	1.73583	1.78829	51.509
9.93939	1.73583	1.78829	51.307
10.0404	1.73583	1.78829	51.105
10.1414	1.73583	1.78829	50.903
10.2424	1.73583	1.78829	50.701
10.3434	1.73583	1.78829	50.499
10.4444	1.73583	1.78829	50.297
10.5455	1.73583	1.78829	50.095
