log(E/eV)	z/pc	t/yr	Synchr	IC	IC - IR	SSC
-6	10	32.7213	36.8267	0	0	0
-5.2069	10	32.7213	37.262	0	0	26.6188
-4.41379	10	32.7213	37.6659	0	0	28.0085
-3.62069	10	32.7213	38.0502	0	21.9077	29.103
-2.82759	10	32.7213	38.4214	0	24.9884	29.9629
-2.03448	10	32.7213	38.7929	0	27.4188	30.6609
-1.24138	10	32.7213	39.1867	23.4338	29.5165	31.2663
-0.448276	10	32.7213	39.5937	26.0067	30.9658	31.8071
0.344828	10	32.7213	39.9759	28.3141	32.0831	32.317
1.13793	10	32.7213	40.3022	30.2464	32.9281	32.799
1.93103	10	32.7213	40.5423	31.581	33.5661	33.2663
2.72414	10	32.7213	40.6893	32.6254	34.0757	33.7161
3.51724	10	32.7213	40.7597	33.4079	34.5139	34.1645
4.31034	10	32.7213	40.7722	33.9907	34.9417	34.5843
5.10345	10	32.7213	40.7355	34.4902	35.3458	35.0217
5.89655	10	32.7213	40.6681	34.9175	35.7315	35.4255
6.68966	10	32.7213	40.5511	35.3368	36.112	35.8073
7.48276	10	32.7213	40.3227	35.6742	36.4596	36.1585
8.27586	10	32.7213	39.888	36.0212	36.9418	36.4791
9.06897	10	32.7213	39.0526	36.2913	37.3	36.7709
9.86207	10	32.7213	37.2911	36.5319	37.5581	37.0099
10.6552	10	32.7213	34.8521	36.6056	37.8713	37.1174
11.4483	10	32.7213	29.8221	35.9413	37.7877	37.0418
12.2414	10	32.7213	10.5568	34.6073	37.4704	36.68
13.0345	10	32.7213	-114.594	32.7991	36.5078	36.2039
13.8276	10	32.7213	0	30.8642	34.83	35.3885
14.6207	10	32.7213	0	28.1062	32.1406	33.6611
15.4138	10	32.7213	0	20.1857	24.232	26.6558
16.2069	10	32.7213	0	0	0	0
17	10	32.7213	0	0	0	0
-5.45569	10.8264	5.24137	38.5658	0	0	0
-4.66259	10.8264	5.24137	38.9978	0	0	27.988
-3.86948	10.8264	5.24137	39.3999	0	0	29.356
-3.07638	10.8264	5.24137	39.783	0	25.68	30.4202
-2.28328	10.8264	5.24137	40.1513	0	28.556	31.2622
-1.49017	10.8264	5.24137	40.5123	0	30.7995	31.9511
-0.697068	10.8264	5.24137	40.8694	26.9612	32.4189	32.5512
0.0960353	10.8264	5.24137	41.1872	29.4854	33.5968	33.0883
0.889139	10.8264	5.24137	41.4205	31.5936	34.4942	33.5939
1.68224	10.8264	5.24137	41.5686	33.0486	35.1908	34.0693
2.47535	10.8264	5.24137	41.652	34.1499	35.7208	34.5256
3.26845	10.8264	5.24137	41.6931	34.9853	36.1836	34.9573
4.06155	10.8264	5.24137	41.7045	35.6202	36.6251	35.382
4.85466	10.8264	5.24137	41.6878	36.1497	37.016	35.7533
5.64776	10.8264	5.24137	41.6374	36.6037	37.3957	36.1481
6.44086	10.8264	5.24137	41.5652	37.0169	37.7841	36.5006
7.23397	10.8264	5.24137	41.4451	37.3945	38.128	36.8321
8.02707	10.8264	5.24137	41.212	37.8026	38.463	37.1353
8.82017	10.8264	5.24137	40.7717	38.123	38.7954	37.411
9.61328	10.8264	5.24137	39.9298	38.3736	38.9436	37.6364
10.4064	10.8264	5.24137	38.1207	38.5445	39.0542	37.7657
11.1995	10.8264	5.24137	35.468	38.5264	39.0475	37.7066
11.9926	10.8264	5.24137	30.4423	37.9794	38.9695	37.5067
12.7857	10.8264	5.24137	9.49755	36.6296	38.7598	37.1151
13.5788	10.8264	5.24137	-126.083	34.8348	38.085	36.6481
14.3719	10.8264	5.24137	0	32.9076	36.751	35.838
15.165	10.8264	5.24137	0	30.1485	34.1566	34.1128
15.9581	10.8264	5.24137	0	22.2284	26.2833	27.1088
16.7512	10.8264	5.24137	0	0	0	0
17.5443	10.8264	5.24137	0	0	0	0
-5.45319	11.721	5.6129	38.454	0	0	0
-4.66009	11.721	5.6129	38.8843	0	0	27.7304
-3.86699	11.721	5.6129	39.2855	0	0	29.0994
-3.07388	11.721	5.6129	39.668	0	25.6206	30.1652
-2.28078	11.721	5.6129	40.036	0	28.4963	31.0079
-1.48768	11.721	5.6129	40.3972	0	30.7388	31.6969
-0.694572	11.721	5.6129	40.7535	26.9014	32.3566	32.297
0.0985311	11.721	5.6129	41.0667	29.4254	33.5354	32.834
0.891635	11.721	5.6129	41.2945	31.5324	34.4335	33.3395
1.68474	11.721	5.6129	41.438	32.9864	35.1304	33.8147
2.47784	11.721	5.6129	41.5181	34.0888	35.6605	34.2706
3.27094	11.721	5.6129	41.557	34.9248	36.1233	34.7018
4.06405	11.721	5.6129	41.5668	35.5597	36.5648	35.126
4.85715	11.721	5.6129	41.5485	36.0892	36.956	35.4962
5.65026	11.721	5.6129	41.4965	36.5432	37.3354	35.8902
6.44336	11.721	5.6129	41.4242	36.9565	37.7238	36.2419
7.23646	11.721	5.6129	41.3024	37.3338	38.0672	36.5725
8.02957	11.721	5.6129	41.0651	37.7421	38.4011	36.8747
8.82267	11.721	5.6129	40.6192	38.0624	38.7312	37.1495
9.61577	11.721	5.6129	39.7718	38.3126	38.878	37.3737
10.4089	11.721	5.6129	37.9326	38.4819	38.9874	37.5016
11.202	11.721	5.6129	35.0242	38.4613	38.9801	37.4418
11.9951	11.721	5.6129	30.0024	37.9153	38.9019	37.2426
12.7882	11.721	5.6129	7.23943	36.5656	38.6914	36.8523
13.5813	11.721	5.6129	-139.632	34.7709	38.0189	36.3859
14.3744	11.721	5.6129	0	32.8439	36.6867	35.576
15.1675	11.721	5.6129	0	30.0849	34.0927	33.851
15.9606	11.721	5.6129	0	22.1649	26.2194	26.8473
16.7537	11.721	5.6129	0	0	0	0
17.5468	11.721	5.6129	0	0	0	0
-5.45072	12.6896	6.01119	38.342	0	0	0
-4.65761	12.6896	6.01119	38.7706	0	0	27.4727
-3.86451	12.6896	6.01119	39.1709	0	0	28.8427
-3.07141	12.6896	6.01119	39.5528	0	25.5612	29.9099
-2.2783	12.6896	6.01119	39.9204	0	28.4365	30.7533
-1.4852	12.6896	6.01119	40.2817	0	30.6781	31.4425
-0.692095	12.6896	6.01119	40.6371	26.8415	32.2943	32.0425
0.101008	12.6896	6.01119	40.9456	29.3654	33.4738	32.5794
0.894111	12.6896	6.01119	41.1681	31.471	34.3726	33.0847
1.68721	12.6896	6.01119	41.307	32.9242	35.0698	33.5597
2.48032	12.6896	6.01119	41.3839	34.0276	35.5998	34.0153
3.27342	12.6896	6.01119	41.4207	34.864	36.0627	34.4459
4.06653	12.6896	6.01119	41.4288	35.4989	36.5043	34.8696
4.85963	12.6896	6.01119	41.4086	36.0284	36.8957	35.2387
5.65273	12.6896	6.01119	41.3545	36.4824	37.2748	35.6319
6.44584	12.6896	6.01119	41.2815	36.8957	37.6632	35.9827
7.23894	12.6896	6.01119	41.1577	37.2728	38.0061	36.3124
8.03204	12.6896	6.01119	40.9156	37.6813	38.3389	36.6137
8.82515	12.6896	6.01119	40.4635	38.0015	38.6668	36.8876
9.61825	12.6896	6.01119	39.6112	38.2513	38.8121	37.1105
10.4114	12.6896	6.01119	37.7546	38.419	38.9204	37.2372
11.2045	12.6896	6.01119	34.5528	38.3959	38.9125	37.1766
11.9976	12.6896	6.01119	29.5336	37.8509	38.8342	36.9781
12.7907	12.6896	6.01119	4.80219	36.5015	38.6228	36.5892
13.5838	12.6896	6.01119	-154.294	34.7069	37.9526	36.1235
14.3769	12.6896	6.01119	0	32.78	36.6222	35.3137
15.17	12.6896	6.01119	0	30.0211	34.0286	33.589
15.9631	12.6896	6.01119	0	22.1012	26.1554	26.5857
16.7562	12.6896	6.01119	0	0	0	0
17.5493	12.6896	6.01119	0	0	0	0
-5.44826	13.7382	6.43819	38.23	0	0	0
-4.65515	13.7382	6.43819	38.6567	0	0	27.2151
-3.86205	13.7382	6.43819	39.0561	0	0	28.586
-3.06895	13.7382	6.43819	39.4374	0	25.5017	29.6546
-2.27584	13.7382	6.43819	39.8046	0	28.3766	30.4986
-1.48274	13.7382	6.43819	40.1659	0	30.6172	31.188
-0.689637	13.7382	6.43819	40.5204	26.7815	32.2319	31.7879
0.103466	13.7382	6.43819	40.824	29.3052	33.4121	32.3245
0.89657	13.7382	6.43819	41.0412	31.4096	34.3115	32.8297
1.68967	13.7382	6.43819	41.1757	32.8619	35.0089	33.3044
2.48278	13.7382	6.43819	41.2495	33.9661	35.5389	33.7597
3.27588	13.7382	6.43819	41.2841	34.803	36.0018	34.1898
4.06898	13.7382	6.43819	41.2904	35.4379	36.4435	34.6129
4.86209	13.7382	6.43819	41.2681	35.9673	36.8351	34.9809
5.65519	13.7382	6.43819	41.2116	36.4213	37.2139	35.3734
6.44829	13.7382	6.43819	41.1373	36.8347	37.6023	35.7233
7.2414	13.7382	6.43819	41.0108	37.2115	37.9447	36.052
8.0345	13.7382	6.43819	40.7634	37.6203	38.2764	36.3524
8.8276	13.7382	6.43819	40.3044	37.9403	38.6021	36.6253
9.62071	13.7382	6.43819	39.447	38.1896	38.746	36.847
10.4138	13.7382	6.43819	37.581	38.3557	38.8532	36.9723
11.2069	13.7382	6.43819	34.054	38.3303	38.8447	36.9111
12	13.7382	6.43819	29.0335	37.7864	38.7662	36.7134
12.7931	13.7382	6.43819	2.17103	36.4372	38.5541	36.3258
13.5862	13.7382	6.43819	-170.159	34.6427	37.886	35.8609
14.3793	13.7382	6.43819	0	32.7159	36.5576	35.0513
15.1724	13.7382	6.43819	0	29.9571	33.9643	33.3268
15.9655	13.7382	6.43819	0	22.0373	26.0911	26.324
16.7586	13.7382	6.43819	0	0	0	0
17.5517	13.7382	6.43819	0	0	0	0
-5.44582	14.8735	6.89599	38.118	0	0	0
-4.65271	14.8735	6.89599	38.5429	0	0	26.9577
-3.85961	14.8735	6.89599	38.9413	0	0	28.3294
-3.06651	14.8735	6.89599	39.3219	0	25.4421	29.3993
-2.2734	14.8735	6.89599	39.6886	0	28.3166	30.244
-1.4803	14.8735	6.89599	40.05	0	30.5562	30.9334
-0.687197	14.8735	6.89599	40.4033	26.7213	32.1693	31.5332
0.105906	14.8735	6.89599	40.702	29.245	33.3501	32.0696
0.89901	14.8735	6.89599	40.9138	31.348	34.2502	32.5746
1.69211	14.8735	6.89599	41.044	32.7994	34.9477	33.049
2.48522	14.8735	6.89599	41.1148	33.9045	35.4777	33.5039
3.27832	14.8735	6.89599	41.1473	34.7417	35.9405	33.9335
4.07142	14.8735	6.89599	41.1516	35.3765	36.3823	34.356
4.86453	14.8735	6.89599	41.1271	35.9058	36.7741	34.7229
5.65763	14.8735	6.89599	41.0679	36.3598	37.1526	35.1146
6.45073	14.8735	6.89599	40.9917	36.7733	37.5411	35.4635
7.24384	14.8735	6.89599	40.8619	37.1499	37.883	35.7914
8.03694	14.8735	6.89599	40.6084	37.5589	38.2136	36.0907
8.83004	14.8735	6.89599	40.1414	37.8787	38.5371	36.3627
9.62315	14.8735	6.89599	39.2783	38.1276	38.6797	36.5831
10.4163	14.8735	6.89599	37.4078	38.2922	38.7858	36.7071
11.2094	14.8735	6.89599	33.5313	38.2645	38.7767	36.6452
12.0025	14.8735	6.89599	28.4997	37.7215	38.6981	36.4484
12.7956	14.8735	6.89599	-0.670063	36.3726	38.4852	36.0623
13.5887	14.8735	6.89599	-187.329	34.5783	37.8193	35.5982
14.3818	14.8735	6.89599	0	32.6516	36.4927	34.7889
15.1749	14.8735	6.89599	0	29.893	33.8998	33.0646
15.968	14.8735	6.89599	0	21.9731	26.0267	26.0622
16.7611	14.8735	6.89599	0	0	0	0
17.5542	14.8735	6.89599	0	0	0	0
-5.4434	16.1026	7.38683	38.006	0	0	0
-4.65029	16.1026	7.38683	38.4293	0	0	26.7006
-3.85719	16.1026	7.38683	38.8266	0	0	28.073
-3.06409	16.1026	7.38683	39.2064	0	25.3823	29.1442
-2.27098	16.1026	7.38683	39.5726	0	28.2564	29.9893
-1.47788	16.1026	7.38683	39.9338	0	30.4951	30.6788
-0.684776	16.1026	7.38683	40.2858	26.6611	32.1066	31.2785
0.108328	16.1026	7.38683	40.5795	29.1846	33.288	31.8147
0.901431	16.1026	7.38683	40.786	31.2863	34.1885	32.3195
1.69453	16.1026	7.38683	40.912	32.7368	34.8862	32.7935
2.48764	16.1026	7.38683	40.9799	33.8426	35.4161	33.248
3.28074	16.1026	7.38683	41.0103	34.6801	35.8789	33.677
4.07385	16.1026	7.38683	41.0127	35.3148	36.3208	34.099
4.86695	16.1026	7.38683	40.9857	35.844	36.7128	34.4647
5.66005	16.1026	7.38683	40.9235	36.2981	37.091	34.8556
6.45316	16.1026	7.38683	40.8448	36.7116	37.4795	35.2036
7.24626	16.1026	7.38683	40.7112	37.088	37.8209	35.5305
8.03936	16.1026	7.38683	40.4506	37.4971	38.1504	35.8288
8.83247	16.1026	7.38683	39.9743	37.8168	38.4718	36.0998
9.62557	16.1026	7.38683	39.1046	38.0653	38.6131	36.3189
10.4187	16.1026	7.38683	37.2319	38.2283	38.7181	36.4415
11.2118	16.1026	7.38683	32.9974	38.1983	38.7085	36.3791
12.0049	16.1026	7.38683	27.9292	37.6565	38.6297	36.1832
12.798	16.1026	7.38683	-3.73844	36.3078	38.416	35.7986
13.5911	16.1026	7.38683	-205.909	34.5136	37.7524	35.3354
14.3842	16.1026	7.38683	0	32.5871	36.4276	34.5264
15.1773	16.1026	7.38683	0	29.8285	33.835	32.8024
15.9704	16.1026	7.38683	0	21.9088	25.9619	25.8006
16.7635	16.1026	7.38683	0	0	0	0
17.5566	16.1026	7.38683	0	0	0	0
-5.44099	17.4333	7.91315	37.8942	0	0	0
-4.64789	17.4333	7.91315	38.3157	0	0	26.4437
-3.85479	17.4333	7.91315	38.712	0	0	27.8169
-3.06168	17.4333	7.91315	39.091	0	25.3224	28.8892
-2.26858	17.4333	7.91315	39.4566	0	28.1961	29.7349
-1.47548	17.4333	7.91315	39.8176	0	30.4338	30.4244
-0.682372	17.4333	7.91315	40.1681	26.6006	32.0437	31.0239
0.110732	17.4333	7.91315	40.4566	29.124	33.2255	31.5599
0.903835	17.4333	7.91315	40.6578	31.2244	34.1265	32.0644
1.69694	17.4333	7.91315	40.7797	32.674	34.8243	32.5381
2.49004	17.4333	7.91315	40.8448	33.7804	35.3542	32.9921
3.28315	17.4333	7.91315	40.8731	34.6182	35.817	33.4205
4.07625	17.4333	7.91315	40.8735	35.2527	36.2589	33.8419
4.86935	17.4333	7.91315	40.8441	35.7819	36.6511	34.2065
5.66246	17.4333	7.91315	40.7787	36.2359	37.0291	34.5965
6.45556	17.4333	7.91315	40.697	36.6495	37.4175	34.9436
7.24866	17.4333	7.91315	40.5588	37.0256	37.7584	35.2695
8.04177	17.4333	7.91315	40.2903	37.435	38.0868	35.5667
8.83487	17.4333	7.91315	39.8029	37.7546	38.406	35.8367
9.62797	17.4333	7.91315	38.9252	38.0026	38.5461	36.0544
10.4211	17.4333	7.91315	37.0515	38.164	38.6501	36.1757
11.2142	17.4333	7.91315	32.484	38.1318	38.64	36.1128
12.0073	17.4333	7.91315	27.319	37.5911	38.5611	35.9178
12.8004	17.4333	7.91315	-7.05288	36.2427	38.3466	35.5349
13.5935	17.4333	7.91315	-226.018	34.4487	37.6852	35.0726
14.3866	17.4333	7.91315	0	32.5222	36.3621	34.2641
15.1797	17.4333	7.91315	0	29.7638	33.7699	32.5404
15.9728	17.4333	7.91315	0	21.8441	25.8969	25.5391
16.7659	17.4333	7.91315	0	0	0	0
17.559	17.4333	7.91315	0	0	0	0
-5.43861	18.8739	8.47752	37.7826	0	0	0
-4.6455	18.8739	8.47752	38.2024	0	0	26.1872
-3.8524	18.8739	8.47752	38.5977	0	0	27.5611
-3.0593	18.8739	8.47752	38.9758	0	25.2622	28.6345
-2.26619	18.8739	8.47752	39.3408	0	28.1355	29.4806
-1.47309	18.8739	8.47752	39.7013	0	30.3722	30.1702
-0.679985	18.8739	8.47752	40.05	26.5399	31.9805	30.7695
0.113118	18.8739	8.47752	40.3334	29.0631	33.1628	31.3052
0.906222	18.8739	8.47752	40.5293	31.1623	34.0641	31.8094
1.69933	18.8739	8.47752	40.6471	32.6109	34.7621	32.2827
2.49243	18.8739	8.47752	40.7096	33.7179	35.2918	32.7362
3.28553	18.8739	8.47752	40.7359	34.556	35.7546	33.164
4.07864	18.8739	8.47752	40.7343	35.1903	36.1966	33.5848
4.87174	18.8739	8.47752	40.7023	35.7194	36.589	33.9482
5.66484	18.8739	8.47752	40.6337	36.1734	36.9667	34.3374
6.45795	18.8739	8.47752	40.5487	36.587	37.3551	34.6836
7.25105	18.8739	8.47752	40.4051	36.9629	37.6955	35.0085
8.04415	18.8739	8.47752	40.1275	37.3725	38.0228	35.3045
8.83726	18.8739	8.47752	39.6271	37.6919	38.3399	35.5734
9.63036	18.8739	8.47752	38.7395	37.9394	38.4788	35.7897
10.4235	18.8739	8.47752	36.8652	38.0993	38.5817	35.9097
11.2166	18.8739	8.47752	32.0425	38.065	38.5711	35.8464
12.0097	18.8739	8.47752	26.6659	37.5253	38.4921	35.6524
12.8028	18.8739	8.47752	-10.6337	36.1772	38.277	35.2711
13.5959	18.8739	8.47752	-247.78	34.3834	37.6177	34.8099
14.389	18.8739	8.47752	0	32.4571	36.2964	34.0019
15.1821	18.8739	8.47752	0	29.6988	33.7045	32.2787
15.9752	18.8739	8.47752	0	21.7791	25.8316	25.2779
16.7683	18.8739	8.47752	0	0	0	0
17.5614	18.8739	8.47752	0	0	0	0
-5.43624	20.4336	9.08273	37.6712	0	0	0
-4.64313	20.4336	9.08273	38.0894	0	0	25.931
-3.85003	20.4336	9.08273	38.4836	0	0	27.3056
-3.05693	20.4336	9.08273	38.8608	0	25.2017	28.38
-2.26382	20.4336	9.08273	39.2251	0	28.0746	29.2266
-1.47072	20.4336	9.08273	39.585	0	30.3103	29.9161
-0.677616	20.4336	9.08273	39.9317	26.479	31.9171	30.5152
0.115487	20.4336	9.08273	40.2099	29.002	33.0998	31.0507
0.908591	20.4336	9.08273	40.4005	31.0999	34.0014	31.5545
1.70169	20.4336	9.08273	40.5144	32.5475	34.6994	32.0275
2.4948	20.4336	9.08273	40.5743	33.655	35.229	32.4805
3.2879	20.4336	9.08273	40.5987	34.4933	35.6917	32.9076
4.081	20.4336	9.08273	40.5952	35.1274	36.1339	33.3277
4.87411	20.4336	9.08273	40.5606	35.6564	36.5265	33.69
5.66721	20.4336	9.08273	40.4889	36.1103	36.9039	34.0784
6.46031	20.4336	9.08273	40.4001	36.524	37.2923	34.4235
7.25342	20.4336	9.08273	40.2507	36.8997	37.6322	34.7473
8.04652	20.4336	9.08273	39.9628	37.3095	37.9583	35.0423
8.83963	20.4336	9.08273	39.4469	37.6287	38.2733	35.31
9.63273	20.4336	9.08273	38.547	37.8758	38.4111	35.5249
10.4258	20.4336	9.08273	36.6722	38.0342	38.513	35.6435
11.2189	20.4336	9.08273	31.704	37.9977	38.5019	35.5798
12.012	20.4336	9.08273	25.9664	37.4592	38.4228	35.3868
12.8051	20.4336	9.08273	-14.5029	36.1114	38.2069	35.0074
13.5982	20.4336	9.08273	-271.334	34.3177	37.5498	34.5474
14.3913	20.4336	9.08273	0	32.3915	36.2303	33.7399
15.1845	20.4336	9.08273	0	29.6334	33.6388	32.0171
15.9776	20.4336	9.08273	0	21.7137	25.7659	25.0169
16.7707	20.4336	9.08273	0	0	0	0
17.5638	20.4336	9.08273	0	0	0	0
-5.43388	22.1222	9.73177	37.5599	0	0	0
-4.64078	22.1222	9.73177	37.9766	0	0	25.6752
-3.84768	22.1222	9.73177	38.3697	0	0	27.0504
-3.05457	22.1222	9.73177	38.7461	0	25.1408	28.1257
-2.26147	22.1222	9.73177	39.1096	0	28.0134	28.9727
-1.46837	22.1222	9.73177	39.4688	0	30.2481	29.6623
-0.675264	22.1222	9.73177	39.8132	26.4176	31.8532	30.2612
0.117839	22.1222	9.73177	40.0861	28.9405	33.0363	30.7963
0.910943	22.1222	9.73177	40.2716	31.0371	33.9381	31.2998
1.70405	22.1222	9.73177	40.3816	32.4837	34.6361	31.7723
2.49715	22.1222	9.73177	40.4389	33.5917	35.1656	32.2248
3.29025	22.1222	9.73177	40.4615	34.4301	35.6284	32.6513
4.08336	22.1222	9.73177	40.4562	35.064	36.0706	33.0708
4.87646	22.1222	9.73177	40.4193	35.5928	36.4634	33.4318
5.66956	22.1222	9.73177	40.3446	36.0468	36.8405	33.8194
6.46267	22.1222	9.73177	40.2519	36.4605	37.2289	34.1634
7.25577	22.1222	9.73177	40.0959	36.836	37.5683	34.4862
8.04887	22.1222	9.73177	39.7965	37.246	37.8932	34.7799
8.84198	22.1222	9.73177	39.2625	37.565	38.2062	35.0465
9.63508	22.1222	9.73177	38.3471	37.8116	38.343	35.2599
10.4282	22.1222	9.73177	36.4715	37.9685	38.4438	35.3773
11.2213	22.1222	9.73177	31.4421	37.9299	38.4323	35.3132
12.0144	22.1222	9.73177	25.2166	37.3926	38.3531	35.1213
12.8075	22.1222	9.73177	-18.6844	36.0451	38.1365	34.7437
13.6006	22.1222	9.73177	0	34.2516	37.4815	34.285
14.3937	22.1222	9.73177	0	32.3255	36.1637	33.4782
15.1868	22.1222	9.73177	0	29.5675	33.5725	31.7559
15.9799	22.1222	9.73177	0	21.6479	25.6997	24.7563
16.773	22.1222	9.73177	0	0	0	0
17.5661	22.1222	9.73177	0	0	0	0
-5.43155	23.9503	10.4278	37.4487	0	0	0
-4.63845	23.9503	10.4278	37.864	0	0	25.4196
-3.84534	23.9503	10.4278	38.2561	0	0	26.7954
-3.05224	23.9503	10.4278	38.6316	0	25.0795	27.8716
-2.25914	23.9503	10.4278	38.9943	0	27.9517	28.719
-1.46603	23.9503	10.4278	39.3526	0	30.1854	29.4086
-0.672929	23.9503	10.4278	39.6944	26.3559	31.789	30.0073
0.120175	23.9503	10.4278	39.9621	28.8786	32.9723	30.5421
0.913278	23.9503	10.4278	40.1424	30.9738	33.8743	31.0453
1.70638	23.9503	10.4278	40.2487	32.4195	34.5723	31.5173
2.49948	23.9503	10.4278	40.3037	33.5279	35.1017	31.9692
3.29259	23.9503	10.4278	40.3246	34.3663	35.5644	32.395
4.08569	23.9503	10.4278	40.3176	35	36.0067	32.8139
4.8788	23.9503	10.4278	40.2784	35.5287	36.3997	33.1737
5.6719	23.9503	10.4278	40.2012	35.9827	36.7765	33.5604
6.465	23.9503	10.4278	40.1044	36.3964	37.165	33.9034
7.25811	23.9503	10.4278	39.9414	36.7716	37.5038	34.2251
8.05121	23.9503	10.4278	39.6295	37.1818	37.8276	34.5176
8.84431	23.9503	10.4278	39.0743	37.5008	38.1385	34.7829
9.63742	23.9503	10.4278	38.1391	37.7468	38.2743	34.9949
10.4305	23.9503	10.4278	36.2624	37.9022	38.3741	35.1109
11.2236	23.9503	10.4278	31.2119	37.8616	38.3622	35.0465
12.0167	23.9503	10.4278	24.4123	37.3254	38.2829	34.8558
12.8098	23.9503	10.4278	-23.2039	35.9783	38.0655	34.4801
13.6029	23.9503	10.4278	0	34.185	37.4127	34.0227
14.396	23.9503	10.4278	0	32.259	36.0966	33.2167
15.1891	23.9503	10.4278	0	29.5011	33.5058	31.4949
15.9822	23.9503	10.4278	0	21.5815	25.6331	24.4959
16.7753	23.9503	10.4278	0	0	0	0
17.5685	23.9503	10.4278	0	0	0	0
-5.42923	25.9294	11.1744	37.3375	0	0	0
-4.63613	25.9294	11.1744	37.7515	0	0	25.1641
-3.84302	25.9294	11.1744	38.1426	0	0	26.5406
-3.04992	25.9294	11.1744	38.5172	0	25.0177	27.6177
-2.25682	25.9294	11.1744	38.8791	0	27.8894	28.4654
-1.46371	25.9294	11.1744	39.2364	0	30.1222	29.1549
-0.67061	25.9294	11.1744	39.5754	26.2935	31.7242	29.7535
0.122493	25.9294	11.1744	39.8378	28.8161	32.9077	30.288
0.915597	25.9294	11.1744	40.0131	30.91	33.8099	30.7908
1.7087	25.9294	11.1744	40.1158	32.3547	34.5079	31.2623
2.5018	25.9294	11.1744	40.1685	33.4635	35.0371	31.7137
3.29491	25.9294	11.1744	40.1879	34.3019	35.4997	32.1388
4.08801	25.9294	11.1744	40.1795	34.9354	35.9421	32.557
4.88111	25.9294	11.1744	40.1382	35.4639	36.3353	32.9156
5.67422	25.9294	11.1744	40.0589	35.9178	36.7118	33.3014
6.46732	25.9294	11.1744	39.9582	36.3316	37.1003	33.6435
7.26042	25.9294	11.1744	39.7879	36.7066	37.4386	33.964
8.05353	25.9294	11.1744	39.4626	37.117	37.7612	34.2552
8.84663	25.9294	11.1744	38.883	37.4358	38.0701	34.5193
9.63973	25.9294	11.1744	37.9225	37.6813	38.2049	34.7298
10.4328	25.9294	11.1744	36.044	37.8353	38.3037	34.8444
11.2259	25.9294	11.1744	30.9871	37.7926	38.2914	34.7798
12.019	25.9294	11.1744	23.5491	37.2576	38.212	34.5902
12.8121	25.9294	11.1744	-28.0894	35.9109	37.994	34.2166
13.6053	25.9294	11.1744	0	34.1177	37.3433	33.7606
14.3984	25.9294	11.1744	0	32.1919	36.0289	32.9553
15.1915	25.9294	11.1744	0	29.4341	33.4384	31.2341
15.9846	25.9294	11.1744	0	21.5145	25.5657	24.2357
16.7777	25.9294	11.1744	0	0	0	0
17.5708	25.9294	11.1744	0	0	0	0
-5.42693	28.0722	11.9752	37.2262	0	0	0
