log(E / eV)	log(z / pc)	t / yr	 logQ
6	1	0	49.7924
6.37931	1	0	50.2986
6.75862	1	0	50.0681
7.13793	1	0	49.53
7.51724	1	0	48.8634
7.89655	1	0	48.1432
8.27586	1	0	47.4007
8.65517	1	0	46.6488
9.03448	1	0	45.8929
9.41379	1	0	45.1355
9.7931	1	0	44.3773
10.1724	1	0	43.6189
10.5517	1	0	42.8603
10.931	1	0	42.1016
11.3103	1	0	41.3427
11.6897	1	0	40.5834
12.069	1	0	39.823
12.4483	1	0	39.0603
12.8276	1	0	38.2919
13.2069	1	0	37.5098
13.5862	1	0	36.695
13.9655	1	0	35.8019
14.3448	1	0	34.721
14.7241	1	0	33.1905
15.1034	1	0	30.5834
15.4828	1	0	25.3975
15.8621	1	0	14.0354
16.2414	1	0	-12.1188
16.6207	1	0	-73.7005
17	1	0	-220.132
6	1.0101	0.113921	48.9388
6.37931	1.0101	0.113921	49.445
6.75862	1.0101	0.113921	49.2144
7.13793	1.0101	0.113921	48.6763
7.51724	1.0101	0.113921	48.0098
7.89655	1.0101	0.113921	47.2896
8.27586	1.0101	0.113921	46.547
8.65517	1.0101	0.113921	45.7951
9.03448	1.0101	0.113921	45.0393
9.41379	1.0101	0.113921	44.2818
9.7931	1.0101	0.113921	43.5237
10.1724	1.0101	0.113921	42.7652
10.5517	1.0101	0.113921	42.0066
10.931	1.0101	0.113921	41.2479
11.3103	1.0101	0.113921	40.489
11.6897	1.0101	0.113921	39.7297
12.069	1.0101	0.113921	38.9694
12.4483	1.0101	0.113921	38.2067
12.8276	1.0101	0.113921	37.4382
13.2069	1.0101	0.113921	36.6562
13.5862	1.0101	0.113921	35.8414
13.9655	1.0101	0.113921	34.9482
14.3448	1.0101	0.113921	33.8673
14.7241	1.0101	0.113921	32.3369
15.1034	1.0101	0.113921	29.7297
15.4828	1.0101	0.113921	24.5438
15.8621	1.0101	0.113921	13.1817
16.2414	1.0101	0.113921	-12.9725
16.6207	1.0101	0.113921	-74.5542
17	1.0101	0.113921	-220.986
6	1.0202	0.142268	48.654
6.37931	1.0202	0.142268	49.1602
6.75862	1.0202	0.142268	48.9297
7.13793	1.0202	0.142268	48.3916
7.51724	1.0202	0.142268	47.725
7.89655	1.0202	0.142268	47.0048
8.27586	1.0202	0.142268	46.2622
8.65517	1.0202	0.142268	45.5103
9.03448	1.0202	0.142268	44.7545
9.41379	1.0202	0.142268	43.997
9.7931	1.0202	0.142268	43.2389
10.1724	1.0202	0.142268	42.4805
10.5517	1.0202	0.142268	41.7219
10.931	1.0202	0.142268	40.9632
11.3103	1.0202	0.142268	40.2043
11.6897	1.0202	0.142268	39.4449
12.069	1.0202	0.142268	38.6846
12.4483	1.0202	0.142268	37.9219
12.8276	1.0202	0.142268	37.1535
13.2069	1.0202	0.142268	36.3714
13.5862	1.0202	0.142268	35.5566
13.9655	1.0202	0.142268	34.6634
14.3448	1.0202	0.142268	33.5826
14.7241	1.0202	0.142268	32.0521
15.1034	1.0202	0.142268	29.445
15.4828	1.0202	0.142268	24.2591
15.8621	1.0202	0.142268	12.897
16.2414	1.0202	0.142268	-13.2572
16.6207	1.0202	0.142268	-74.8389
17	1.0202	0.142268	-221.27
6	1.0303	0.173977	48.5633
6.37931	1.0303	0.173977	49.0695
6.75862	1.0303	0.173977	48.839
7.13793	1.0303	0.173977	48.3009
7.51724	1.0303	0.173977	47.6343
7.89655	1.0303	0.173977	46.9141
8.27586	1.0303	0.173977	46.1715
8.65517	1.0303	0.173977	45.4196
9.03448	1.0303	0.173977	44.6638
9.41379	1.0303	0.173977	43.9063
9.7931	1.0303	0.173977	43.1482
10.1724	1.0303	0.173977	42.3898
10.5517	1.0303	0.173977	41.6312
10.931	1.0303	0.173977	40.8725
11.3103	1.0303	0.173977	40.1136
11.6897	1.0303	0.173977	39.3542
12.069	1.0303	0.173977	38.5939
12.4483	1.0303	0.173977	37.8312
12.8276	1.0303	0.173977	37.0628
13.2069	1.0303	0.173977	36.2807
13.5862	1.0303	0.173977	35.4659
13.9655	1.0303	0.173977	34.5727
14.3448	1.0303	0.173977	33.4919
14.7241	1.0303	0.173977	31.9614
15.1034	1.0303	0.173977	29.3543
15.4828	1.0303	0.173977	24.1684
15.8621	1.0303	0.173977	12.8063
16.2414	1.0303	0.173977	-13.3479
16.6207	1.0303	0.173977	-74.9296
17	1.0303	0.173977	-221.361
6	1.0404	0.196425	48.4754
6.37931	1.0404	0.196425	48.9816
6.75862	1.0404	0.196425	48.7511
7.13793	1.0404	0.196425	48.2129
7.51724	1.0404	0.196425	47.5464
7.89655	1.0404	0.196425	46.8262
8.27586	1.0404	0.196425	46.0836
8.65517	1.0404	0.196425	45.3317
9.03448	1.0404	0.196425	44.5759
9.41379	1.0404	0.196425	43.8184
9.7931	1.0404	0.196425	43.0603
10.1724	1.0404	0.196425	42.3019
10.5517	1.0404	0.196425	41.5433
10.931	1.0404	0.196425	40.7846
11.3103	1.0404	0.196425	40.0257
11.6897	1.0404	0.196425	39.2663
12.069	1.0404	0.196425	38.506
12.4483	1.0404	0.196425	37.7433
12.8276	1.0404	0.196425	36.9749
13.2069	1.0404	0.196425	36.1928
13.5862	1.0404	0.196425	35.378
13.9655	1.0404	0.196425	34.4848
14.3448	1.0404	0.196425	33.4039
14.7241	1.0404	0.196425	31.8735
15.1034	1.0404	0.196425	29.2664
15.4828	1.0404	0.196425	24.0804
15.8621	1.0404	0.196425	12.7184
16.2414	1.0404	0.196425	-13.4358
16.6207	1.0404	0.196425	-75.0175
17	1.0404	0.196425	-221.449
6	1.05051	0.217982	48.4163
6.37931	1.05051	0.217982	48.9225
6.75862	1.05051	0.217982	48.6919
7.13793	1.05051	0.217982	48.1538
7.51724	1.05051	0.217982	47.4873
7.89655	1.05051	0.217982	46.7671
8.27586	1.05051	0.217982	46.0245
8.65517	1.05051	0.217982	45.2726
9.03448	1.05051	0.217982	44.5168
9.41379	1.05051	0.217982	43.7593
9.7931	1.05051	0.217982	43.0012
10.1724	1.05051	0.217982	42.2427
10.5517	1.05051	0.217982	41.4841
10.931	1.05051	0.217982	40.7254
11.3103	1.05051	0.217982	39.9665
11.6897	1.05051	0.217982	39.2072
12.069	1.05051	0.217982	38.4469
12.4483	1.05051	0.217982	37.6842
12.8276	1.05051	0.217982	36.9158
13.2069	1.05051	0.217982	36.1337
13.5862	1.05051	0.217982	35.3189
13.9655	1.05051	0.217982	34.4257
14.3448	1.05051	0.217982	33.3448
14.7241	1.05051	0.217982	31.8144
15.1034	1.05051	0.217982	29.2072
15.4828	1.05051	0.217982	24.0213
15.8621	1.05051	0.217982	12.6592
16.2414	1.05051	0.217982	-13.495
16.6207	1.05051	0.217982	-75.0767
17	1.05051	0.217982	-221.508
6	1.06061	0.235869	48.3578
6.37931	1.06061	0.235869	48.8639
6.75862	1.06061	0.235869	48.6334
7.13793	1.06061	0.235869	48.0953
7.51724	1.06061	0.235869	47.4287
7.89655	1.06061	0.235869	46.7086
8.27586	1.06061	0.235869	45.966
8.65517	1.06061	0.235869	45.2141
9.03448	1.06061	0.235869	44.4582
9.41379	1.06061	0.235869	43.7008
9.7931	1.06061	0.235869	42.9427
10.1724	1.06061	0.235869	42.1842
10.5517	1.06061	0.235869	41.4256
10.931	1.06061	0.235869	40.6669
11.3103	1.06061	0.235869	39.908
11.6897	1.06061	0.235869	39.1487
12.069	1.06061	0.235869	38.3884
12.4483	1.06061	0.235869	37.6256
12.8276	1.06061	0.235869	36.8572
13.2069	1.06061	0.235869	36.0752
13.5862	1.06061	0.235869	35.2604
13.9655	1.06061	0.235869	34.3672
14.3448	1.06061	0.235869	33.2863
14.7241	1.06061	0.235869	31.7559
15.1034	1.06061	0.235869	29.1487
15.4828	1.06061	0.235869	23.9628
15.8621	1.06061	0.235869	12.6007
16.2414	1.06061	0.235869	-13.5535
16.6207	1.06061	0.235869	-75.1352
17	1.06061	0.235869	-221.567
6	1.07071	0.252744	48.308
6.37931	1.07071	0.252744	48.8142
6.75862	1.07071	0.252744	48.5837
7.13793	1.07071	0.252744	48.0456
7.51724	1.07071	0.252744	47.379
7.89655	1.07071	0.252744	46.6589
8.27586	1.07071	0.252744	45.9163
8.65517	1.07071	0.252744	45.1644
9.03448	1.07071	0.252744	44.4085
9.41379	1.07071	0.252744	43.6511
9.7931	1.07071	0.252744	42.8929
10.1724	1.07071	0.252744	42.1345
10.5517	1.07071	0.252744	41.3759
10.931	1.07071	0.252744	40.6172
11.3103	1.07071	0.252744	39.8583
11.6897	1.07071	0.252744	39.099
12.069	1.07071	0.252744	38.3387
12.4483	1.07071	0.252744	37.5759
12.8276	1.07071	0.252744	36.8075
13.2069	1.07071	0.252744	36.0254
13.5862	1.07071	0.252744	35.2106
13.9655	1.07071	0.252744	34.3175
14.3448	1.07071	0.252744	33.2366
14.7241	1.07071	0.252744	31.7062
15.1034	1.07071	0.252744	29.099
15.4828	1.07071	0.252744	23.9131
15.8621	1.07071	0.252744	12.551
16.2414	1.07071	0.252744	-13.6032
16.6207	1.07071	0.252744	-75.1849
17	1.07071	0.252744	-221.616
6	1.08081	0.26817	48.2611
6.37931	1.08081	0.26817	48.7673
6.75862	1.08081	0.26817	48.5368
7.13793	1.08081	0.26817	47.9987
7.51724	1.08081	0.26817	47.3321
7.89655	1.08081	0.26817	46.6119
8.27586	1.08081	0.26817	45.8693
8.65517	1.08081	0.26817	45.1174
9.03448	1.08081	0.26817	44.3616
9.41379	1.08081	0.26817	43.6041
9.7931	1.08081	0.26817	42.846
10.1724	1.08081	0.26817	42.0876
10.5517	1.08081	0.26817	41.329
10.931	1.08081	0.26817	40.5703
11.3103	1.08081	0.26817	39.8114
11.6897	1.08081	0.26817	39.052
12.069	1.08081	0.26817	38.2917
12.4483	1.08081	0.26817	37.529
12.8276	1.08081	0.26817	36.7606
13.2069	1.08081	0.26817	35.9785
13.5862	1.08081	0.26817	35.1637
13.9655	1.08081	0.26817	34.2705
14.3448	1.08081	0.26817	33.1897
14.7241	1.08081	0.26817	31.6592
15.1034	1.08081	0.26817	29.0521
15.4828	1.08081	0.26817	23.8662
15.8621	1.08081	0.26817	12.5041
16.2414	1.08081	0.26817	-13.6501
16.6207	1.08081	0.26817	-75.2318
17	1.08081	0.26817	-221.663
6	1.09091	0.282743	48.2175
6.37931	1.09091	0.282743	48.7237
6.75862	1.09091	0.282743	48.4932
7.13793	1.09091	0.282743	47.955
7.51724	1.09091	0.282743	47.2885
7.89655	1.09091	0.282743	46.5683
8.27586	1.09091	0.282743	45.8257
8.65517	1.09091	0.282743	45.0738
9.03448	1.09091	0.282743	44.318
9.41379	1.09091	0.282743	43.5605
9.7931	1.09091	0.282743	42.8024
10.1724	1.09091	0.282743	42.0439
10.5517	1.09091	0.282743	41.2854
10.931	1.09091	0.282743	40.5267
11.3103	1.09091	0.282743	39.7677
11.6897	1.09091	0.282743	39.0084
12.069	1.09091	0.282743	38.2481
12.4483	1.09091	0.282743	37.4854
12.8276	1.09091	0.282743	36.717
13.2069	1.09091	0.282743	35.9349
13.5862	1.09091	0.282743	35.1201
13.9655	1.09091	0.282743	34.2269
14.3448	1.09091	0.282743	33.146
14.7241	1.09091	0.282743	31.6156
15.1034	1.09091	0.282743	29.0084
15.4828	1.09091	0.282743	23.8225
15.8621	1.09091	0.282743	12.4605
16.2414	1.09091	0.282743	-13.6938
16.6207	1.09091	0.282743	-75.2755
17	1.09091	0.282743	-221.707
6	1.10101	0.29557	48.1716
6.37931	1.10101	0.29557	48.6778
6.75862	1.10101	0.29557	48.4473
7.13793	1.10101	0.29557	47.9091
7.51724	1.10101	0.29557	47.2426
7.89655	1.10101	0.29557	46.5224
8.27586	1.10101	0.29557	45.7798
8.65517	1.10101	0.29557	45.0279
9.03448	1.10101	0.29557	44.2721
9.41379	1.10101	0.29557	43.5146
9.7931	1.10101	0.29557	42.7565
10.1724	1.10101	0.29557	41.9981
10.5517	1.10101	0.29557	41.2395
10.931	1.10101	0.29557	40.4808
11.3103	1.10101	0.29557	39.7219
11.6897	1.10101	0.29557	38.9625
12.069	1.10101	0.29557	38.2022
12.4483	1.10101	0.29557	37.4395
12.8276	1.10101	0.29557	36.6711
13.2069	1.10101	0.29557	35.889
13.5862	1.10101	0.29557	35.0742
13.9655	1.10101	0.29557	34.181
14.3448	1.10101	0.29557	33.1001
14.7241	1.10101	0.29557	31.5697
15.1034	1.10101	0.29557	28.9626
15.4828	1.10101	0.29557	23.7766
15.8621	1.10101	0.29557	12.4146
16.2414	1.10101	0.29557	-13.7396
16.6207	1.10101	0.29557	-75.3214
17	1.10101	0.29557	-221.753
6	1.11111	0.309608	48.1355
6.37931	1.11111	0.309608	48.6417
6.75862	1.11111	0.309608	48.4112
7.13793	1.11111	0.309608	47.8731
7.51724	1.11111	0.309608	47.2065
7.89655	1.11111	0.309608	46.4863
8.27586	1.11111	0.309608	45.7438
8.65517	1.11111	0.309608	44.9918
9.03448	1.11111	0.309608	44.236
9.41379	1.11111	0.309608	43.4786
9.7931	1.11111	0.309608	42.7204
10.1724	1.11111	0.309608	41.962
10.5517	1.11111	0.309608	41.2034
10.931	1.11111	0.309608	40.4447
11.3103	1.11111	0.309608	39.6858
11.6897	1.11111	0.309608	38.9264
12.069	1.11111	0.309608	38.1661
12.4483	1.11111	0.309608	37.4034
12.8276	1.11111	0.309608	36.635
13.2069	1.11111	0.309608	35.8529
13.5862	1.11111	0.309608	35.0381
13.9655	1.11111	0.309608	34.1449
14.3448	1.11111	0.309608	33.0641
14.7241	1.11111	0.309608	31.5336
15.1034	1.11111	0.309608	28.9265
15.4828	1.11111	0.309608	23.7406
15.8621	1.11111	0.309608	12.3785
16.2414	1.11111	0.309608	-13.7757
16.6207	1.11111	0.309608	-75.3574
17	1.11111	0.309608	-221.789
6	1.12121	0.32246	48.0976
6.37931	1.12121	0.32246	48.6038
6.75862	1.12121	0.32246	48.3733
7.13793	1.12121	0.32246	47.8352
7.51724	1.12121	0.32246	47.1686
7.89655	1.12121	0.32246	46.4485
8.27586	1.12121	0.32246	45.7059
8.65517	1.12121	0.32246	44.954
9.03448	1.12121	0.32246	44.1981
9.41379	1.12121	0.32246	43.4407
9.7931	1.12121	0.32246	42.6825
10.1724	1.12121	0.32246	41.9241
10.5517	1.12121	0.32246	41.1655
10.931	1.12121	0.32246	40.4068
11.3103	1.12121	0.32246	39.6479
11.6897	1.12121	0.32246	38.8886
12.069	1.12121	0.32246	38.1283
12.4483	1.12121	0.32246	37.3655
12.8276	1.12121	0.32246	36.5971
13.2069	1.12121	0.32246	35.8151
13.5862	1.12121	0.32246	35.0003
13.9655	1.12121	0.32246	34.1071
14.3448	1.12121	0.32246	33.0262
14.7241	1.12121	0.32246	31.4958
15.1034	1.12121	0.32246	28.8886
15.4828	1.12121	0.32246	23.7027
15.8621	1.12121	0.32246	12.3406
16.2414	1.12121	0.32246	-13.8136
16.6207	1.12121	0.32246	-75.3953
17	1.12121	0.32246	-221.827
6	1.13131	0.334319	48.0584
6.37931	1.13131	0.334319	48.5646
6.75862	1.13131	0.334319	48.3341
7.13793	1.13131	0.334319	47.7959
7.51724	1.13131	0.334319	47.1294
7.89655	1.13131	0.334319	46.4092
8.27586	1.13131	0.334319	45.6666
8.65517	1.13131	0.334319	44.9147
9.03448	1.13131	0.334319	44.1589
9.41379	1.13131	0.334319	43.4014
9.7931	1.13131	0.334319	42.6433
10.1724	1.13131	0.334319	41.8849
10.5517	1.13131	0.334319	41.1263
10.931	1.13131	0.334319	40.3676
11.3103	1.13131	0.334319	39.6087
11.6897	1.13131	0.334319	38.8493
12.069	1.13131	0.334319	38.089
12.4483	1.13131	0.334319	37.3263
12.8276	1.13131	0.334319	36.5579
13.2069	1.13131	0.334319	35.7758
13.5862	1.13131	0.334319	34.961
13.9655	1.13131	0.334319	34.0678
14.3448	1.13131	0.334319	32.9869
14.7241	1.13131	0.334319	31.4565
15.1034	1.13131	0.334319	28.8493
15.4828	1.13131	0.334319	23.6634
15.8621	1.13131	0.334319	12.3014
16.2414	1.13131	0.334319	-13.8528
16.6207	1.13131	0.334319	-75.4346
17	1.13131	0.334319	-221.866
6	1.14141	0.346653	48.0234
6.37931	1.14141	0.346653	48.5296
6.75862	1.14141	0.346653	48.2991
7.13793	1.14141	0.346653	47.7609
7.51724	1.14141	0.346653	47.0944
7.89655	1.14141	0.346653	46.3742
8.27586	1.14141	0.346653	45.6316
8.65517	1.14141	0.346653	44.8797
9.03448	1.14141	0.346653	44.1239
9.41379	1.14141	0.346653	43.3664
9.7931	1.14141	0.346653	42.6083
10.1724	1.14141	0.346653	41.8499
10.5517	1.14141	0.346653	41.0913
10.931	1.14141	0.346653	40.3326
11.3103	1.14141	0.346653	39.5737
11.6897	1.14141	0.346653	38.8143
12.069	1.14141	0.346653	38.054
12.4483	1.14141	0.346653	37.2913
12.8276	1.14141	0.346653	36.5229
13.2069	1.14141	0.346653	35.7408
13.5862	1.14141	0.346653	34.926
13.9655	1.14141	0.346653	34.0328
14.3448	1.14141	0.346653	32.9519
14.7241	1.14141	0.346653	31.4215
15.1034	1.14141	0.346653	28.8144
15.4828	1.14141	0.346653	23.6284
15.8621	1.14141	0.346653	12.2664
16.2414	1.14141	0.346653	-13.8878
16.6207	1.14141	0.346653	-75.4696
17	1.14141	0.346653	-221.901
6	1.15152	0.358272	47.9873
6.37931	1.15152	0.358272	48.4935
6.75862	1.15152	0.358272	48.263
7.13793	1.15152	0.358272	47.7249
7.51724	1.15152	0.358272	47.0583
7.89655	1.15152	0.358272	46.3381
8.27586	1.15152	0.358272	45.5956
8.65517	1.15152	0.358272	44.8436
9.03448	1.15152	0.358272	44.0878
9.41379	1.15152	0.358272	43.3304
9.7931	1.15152	0.358272	42.5722
10.1724	1.15152	0.358272	41.8138
10.5517	1.15152	0.358272	41.0552
10.931	1.15152	0.358272	40.2965
11.3103	1.15152	0.358272	39.5376
11.6897	1.15152	0.358272	38.7782
12.069	1.15152	0.358272	38.0179
12.4483	1.15152	0.358272	37.2552
12.8276	1.15152	0.358272	36.4868
13.2069	1.15152	0.358272	35.7047
13.5862	1.15152	0.358272	34.8899
13.9655	1.15152	0.358272	33.9967
14.3448	1.15152	0.358272	32.9159
14.7241	1.15152	0.358272	31.3854
15.1034	1.15152	0.358272	28.7783
15.4828	1.15152	0.358272	23.5924
15.8621	1.15152	0.358272	12.2303
16.2414	1.15152	0.358272	-13.9239
16.6207	1.15152	0.358272	-75.5056
17	1.15152	0.358272	-221.937
6	1.16162	0.370588	47.9555
6.37931	1.16162	0.370588	48.4617
6.75862	1.16162	0.370588	48.2312
7.13793	1.16162	0.370588	47.693
7.51724	1.16162	0.370588	47.0265
7.89655	1.16162	0.370588	46.3063
8.27586	1.16162	0.370588	45.5637
8.65517	1.16162	0.370588	44.8118
9.03448	1.16162	0.370588	44.056
9.41379	1.16162	0.370588	43.2985
9.7931	1.16162	0.370588	42.5404
10.1724	1.16162	0.370588	41.782
10.5517	1.16162	0.370588	41.0234
10.931	1.16162	0.370588	40.2647
11.3103	1.16162	0.370588	39.5058
11.6897	1.16162	0.370588	38.7464
12.069	1.16162	0.370588	37.9861
12.4483	1.16162	0.370588	37.2234
12.8276	1.16162	0.370588	36.455
13.2069	1.16162	0.370588	35.6729
13.5862	1.16162	0.370588	34.8581
13.9655	1.16162	0.370588	33.9649
14.3448	1.16162	0.370588	32.884
14.7241	1.16162	0.370588	31.3536
15.1034	1.16162	0.370588	28.7464
15.4828	1.16162	0.370588	23.5605
15.8621	1.16162	0.370588	12.1985
16.2414	1.16162	0.370588	-13.9557
16.6207	1.16162	0.370588	-75.5375
17	1.16162	0.370588	-221.969
6	1.17172	0.381075	47.9177
6.37931	1.17172	0.381075	48.4239
6.75862	1.17172	0.381075	48.1934
7.13793	1.17172	0.381075	47.6552
7.51724	1.17172	0.381075	46.9887
7.89655	1.17172	0.381075	46.2685
8.27586	1.17172	0.381075	45.5259
8.65517	1.17172	0.381075	44.774
9.03448	1.17172	0.381075	44.0182
9.41379	1.17172	0.381075	43.2607
9.7931	1.17172	0.381075	42.5026
10.1724	1.17172	0.381075	41.7442
10.5517	1.17172	0.381075	40.9856
10.931	1.17172	0.381075	40.2269
11.3103	1.17172	0.381075	39.468
11.6897	1.17172	0.381075	38.7086
12.069	1.17172	0.381075	37.9483
12.4483	1.17172	0.381075	37.1856
12.8276	1.17172	0.381075	36.4172
13.2069	1.17172	0.381075	35.6351
13.5862	1.17172	0.381075	34.8203
13.9655	1.17172	0.381075	33.9271
14.3448	1.17172	0.381075	32.8462
14.7241	1.17172	0.381075	31.3158
15.1034	1.17172	0.381075	28.7087
15.4828	1.17172	0.381075	23.5227
15.8621	1.17172	0.381075	12.1607
16.2414	1.17172	0.381075	-13.9935
16.6207	1.17172	0.381075	-75.5753
17	1.17172	0.381075	-222.007
6	1.18182	0.393716	47.8892
6.37931	1.18182	0.393716	48.3954
6.75862	1.18182	0.393716	48.1649
7.13793	1.18182	0.393716	47.6268
7.51724	1.18182	0.393716	46.9602
7.89655	1.18182	0.393716	46.2401
8.27586	1.18182	0.393716	45.4975
8.65517	1.18182	0.393716	44.7456
9.03448	1.18182	0.393716	43.9897
9.41379	1.18182	0.393716	43.2323
9.7931	1.18182	0.393716	42.4741
10.1724	1.18182	0.393716	41.7157
10.5517	1.18182	0.393716	40.9571
10.931	1.18182	0.393716	40.1984
11.3103	1.18182	0.393716	39.4395
11.6897	1.18182	0.393716	38.6802
12.069	1.18182	0.393716	37.9199
12.4483	1.18182	0.393716	37.1571
12.8276	1.18182	0.393716	36.3887
13.2069	1.18182	0.393716	35.6067
13.5862	1.18182	0.393716	34.7919
13.9655	1.18182	0.393716	33.8987
14.3448	1.18182	0.393716	32.8178
14.7241	1.18182	0.393716	31.2874
15.1034	1.18182	0.393716	28.6802
15.4828	1.18182	0.393716	23.4943
15.8621	1.18182	0.393716	12.1322
16.2414	1.18182	0.393716	-14.022
16.6207	1.18182	0.393716	-75.6037
17	1.18182	0.393716	-222.035
6	1.19192	0.403376	47.8502
6.37931	1.19192	0.403376	48.3564
6.75862	1.19192	0.403376	48.1258
7.13793	1.19192	0.403376	47.5877
7.51724	1.19192	0.403376	46.9212
7.89655	1.19192	0.403376	46.201
8.27586	1.19192	0.403376	45.4584
8.65517	1.19192	0.403376	44.7065
9.03448	1.19192	0.403376	43.9507
9.41379	1.19192	0.403376	43.1932
9.7931	1.19192	0.403376	42.4351
10.1724	1.19192	0.403376	41.6766
10.5517	1.19192	0.403376	40.918
10.931	1.19192	0.403376	40.1593
11.3103	1.19192	0.403376	39.4004
11.6897	1.19192	0.403376	38.6411
12.069	1.19192	0.403376	37.8808
12.4483	1.19192	0.403376	37.1181
12.8276	1.19192	0.403376	36.3497
13.2069	1.19192	0.403376	35.5676
13.5862	1.19192	0.403376	34.7528
13.9655	1.19192	0.403376	33.8596
14.3448	1.19192	0.403376	32.7787
14.7241	1.19192	0.403376	31.2483
15.1034	1.19192	0.403376	28.6411
15.4828	1.19192	0.403376	23.4552
15.8621	1.19192	0.403376	12.0931
16.2414	1.19192	0.403376	-14.0611
16.6207	1.19192	0.403376	-75.6428
17	1.19192	0.403376	-222.074
6	1.20202	0.416589	47.8252
6.37931	1.20202	0.416589	48.3313
6.75862	1.20202	0.416589	48.1008
7.13793	1.20202	0.416589	47.5627
7.51724	1.20202	0.416589	46.8962
7.89655	1.20202	0.416589	46.176
8.27586	1.20202	0.416589	45.4334
8.65517	1.20202	0.416589	44.6815
9.03448	1.20202	0.416589	43.9257
9.41379	1.20202	0.416589	43.1682
9.7931	1.20202	0.416589	42.4101
10.1724	1.20202	0.416589	41.6516
10.5517	1.20202	0.416589	40.893
10.931	1.20202	0.416589	40.1343
11.3103	1.20202	0.416589	39.3754
11.6897	1.20202	0.416589	38.6161
12.069	1.20202	0.416589	37.8558
12.4483	1.20202	0.416589	37.0931
12.8276	1.20202	0.416589	36.3246
13.2069	1.20202	0.416589	35.5426
13.5862	1.20202	0.416589	34.7278
13.9655	1.20202	0.416589	33.8346
14.3448	1.20202	0.416589	32.7537
14.7241	1.20202	0.416589	31.2233
15.1034	1.20202	0.416589	28.6161
15.4828	1.20202	0.416589	23.4302
15.8621	1.20202	0.416589	12.0681
16.2414	1.20202	0.416589	-14.0861
16.6207	1.20202	0.416589	-75.6678
17	1.20202	0.416589	-222.099
6	1.21212	0.425643	47.7851
6.37931	1.21212	0.425643	48.2913
